Mar. 20, 2024   18:29:11
A.C. Impedance
File: c:\documents and settings\administrator\Data Source:  Experiment
Instrument Model:  CHI760E
Header: 
Note: 

Init E (V) = 0.5
High Frequency (Hz) = 1e+5
Low Frequency (Hz) = 0.1
Imp SF
Amplitude (V) = 0.005
Quiet Time (sec) = 2
Cycles (.1-1Hz) = 1

Freq/Hz, Z'/ohm, Z"/ohm, Z/ohm, Phase/deg

9.995e+4, 1.813e+0, 4.653e-1, 1.872e+0, 14.4
8.252e+4, 1.795e+0, 3.824e-1, 1.835e+0, 12.0
6.812e+4, 1.774e+0, 3.122e-1, 1.801e+0, 10.0
5.625e+4, 1.766e+0, 2.535e-1, 1.784e+0, 8.2
4.644e+4, 1.763e+0, 2.102e-1, 1.776e+0, 6.8
3.833e+4, 1.760e+0, 1.607e-1, 1.767e+0, 5.2
3.164e+4, 1.761e+0, 1.273e-1, 1.765e+0, 4.1
2.612e+4, 1.762e+0, 9.910e-2, 1.764e+0, 3.2
2.153e+4, 1.763e+0, 7.465e-2, 1.765e+0, 2.4
1.777e+4, 1.765e+0, 5.364e-2, 1.766e+0, 1.7
1.470e+4, 1.768e+0, 3.618e-2, 1.768e+0, 1.2
1.211e+4, 1.771e+0, 2.133e-2, 1.771e+0, 0.7
1.001e+4, 1.774e+0, 7.783e-3, 1.774e+0, 0.3
8.252e+3, 1.779e+0, -8.170e-3, 1.779e+0, -0.3
6.812e+3, 1.784e+0, -1.811e-2, 1.784e+0, -0.6
5.625e+3, 1.788e+0, -2.875e-2, 1.788e+0, -0.9
4.643e+3, 1.792e+0, -3.840e-2, 1.793e+0, -1.2
3.833e+3, 1.797e+0, -4.820e-2, 1.798e+0, -1.5
3.164e+3, 1.802e+0, -5.853e-2, 1.803e+0, -1.9
2.612e+3, 1.808e+0, -6.929e-2, 1.809e+0, -2.2
2.153e+3, 1.814e+0, -8.096e-2, 1.816e+0, -2.6
1.777e+3, 1.822e+0, -9.387e-2, 1.825e+0, -2.9
1.470e+3, 1.831e+0, -1.074e-1, 1.834e+0, -3.4
1.211e+3, 1.840e+0, -1.225e-1, 1.845e+0, -3.8
1.001e+3, 1.851e+0, -1.400e-1, 1.856e+0, -4.3
8.252e+2, 1.879e+0, -1.534e-1, 1.885e+0, -4.7
6.836e+2, 1.892e+0, -1.763e-1, 1.901e+0, -5.3
5.615e+2, 1.909e+0, -2.023e-1, 1.920e+0, -6.0
4.639e+2, 1.927e+0, -2.306e-1, 1.941e+0, -6.8
3.809e+2, 1.949e+0, -2.630e-1, 1.967e+0, -7.7
3.174e+2, 1.973e+0, -2.964e-1, 1.995e+0, -8.5
2.588e+2, 2.003e+0, -3.375e-1, 2.031e+0, -9.6
2.148e+2, 2.034e+0, -3.793e-1, 2.069e+0, -10.6
1.758e+2, 2.075e+0, -4.291e-1, 2.119e+0, -11.7
1.465e+2, 2.117e+0, -4.790e-1, 2.170e+0, -12.8
1.221e+2, 2.165e+0, -5.329e-1, 2.229e+0, -13.8
9.766e+1, 2.234e+0, -5.979e-1, 2.313e+0, -15.0
8.254e+1, 2.305e+0, -6.342e-1, 2.390e+0, -15.4
6.813e+1, 2.382e+0, -7.085e-1, 2.485e+0, -16.6
5.623e+1, 2.495e+0, -8.067e-1, 2.622e+0, -17.9
4.642e+1, 2.566e+0, -8.614e-1, 2.707e+0, -18.6
3.831e+1, 2.678e+0, -9.412e-1, 2.839e+0, -19.4
3.162e+1, 2.797e+0, -1.019e+0, 2.977e+0, -20.0
2.610e+1, 2.926e+0, -1.097e+0, 3.125e+0, -20.5
2.154e+1, 3.064e+0, -1.174e+0, 3.282e+0, -21.0
1.778e+1, 3.211e+0, -1.250e+0, 3.446e+0, -21.3
1.468e+1, 3.363e+0, -1.329e+0, 3.616e+0, -21.6
1.212e+1, 3.524e+0, -1.409e+0, 3.795e+0, -21.8
1.000e+1, 3.694e+0, -1.486e+0, 3.982e+0, -21.9
8.254e+0, 3.872e+0, -1.581e+0, 4.183e+0, -22.2
6.813e+0, 4.051e+0, -1.685e+0, 4.388e+0, -22.6
5.623e+0, 4.244e+0, -1.802e+0, 4.610e+0, -23.0
4.642e+0, 4.450e+0, -1.935e+0, 4.853e+0, -23.5
3.831e+0, 4.679e+0, -2.087e+0, 5.123e+0, -24.0
3.162e+0, 4.942e+0, -2.264e+0, 5.436e+0, -24.6
2.610e+0, 5.193e+0, -2.445e+0, 5.740e+0, -25.2
2.154e+0, 5.552e+0, -2.678e+0, 6.164e+0, -25.8
1.778e+0, 5.862e+0, -2.896e+0, 6.539e+0, -26.3
1.468e+0, 6.481e+0, -3.232e+0, 7.242e+0, -26.5
1.212e+0, 6.881e+0, -3.478e+0, 7.710e+0, -26.8
1.000e+0, 7.330e+0, -3.696e+0, 8.209e+0, -26.8
8.254e-1, 7.892e+0, -3.904e+0, 8.805e+0, -26.3
6.813e-1, 8.297e+0, -4.075e+0, 9.243e+0, -26.2
5.623e-1, 8.860e+0, -4.252e+0, 9.827e+0, -25.6
4.642e-1, 9.474e+0, -4.382e+0, 1.044e+1, -24.8
3.831e-1, 1.012e+1, -4.446e+0, 1.106e+1, -23.7
3.162e-1, 1.080e+1, -4.432e+0, 1.167e+1, -22.3
2.610e-1, 1.146e+1, -4.333e+0, 1.225e+1, -20.7
2.154e-1, 1.210e+1, -4.149e+0, 1.279e+1, -18.9
1.778e-1, 1.271e+1, -3.897e+0, 1.329e+1, -17.0
1.468e-1, 1.324e+1, -3.578e+0, 1.371e+1, -15.1
1.212e-1, 1.372e+1, -3.237e+0, 1.410e+1, -13.3
1.000e-1, 1.459e+1, -3.327e+0, 1.496e+1, -12.8
