Mar. 20, 2024   11:30:31
A.C. Impedance
File: c:\documents and settings\administrator\Data Source:  Experiment
Instrument Model:  CHI760E
Header: 
Note: 

Init E (V) = 0.5
High Frequency (Hz) = 1e+5
Low Frequency (Hz) = 0.1
Imp SF
Amplitude (V) = 0.005
Quiet Time (sec) = 2
Cycles (.1-1Hz) = 1

Freq/Hz, Z'/ohm, Z"/ohm, Z/ohm, Phase/deg

9.995e+4, 1.553e+0, 5.663e-1, 1.653e+0, 20.0
8.252e+4, 1.532e+0, 4.657e-1, 1.601e+0, 16.9
6.812e+4, 1.518e+0, 3.817e-1, 1.565e+0, 14.1
5.625e+4, 1.510e+0, 3.107e-1, 1.542e+0, 11.6
4.644e+4, 1.508e+0, 2.558e-1, 1.529e+0, 9.6
3.833e+4, 1.501e+0, 2.055e-1, 1.515e+0, 7.8
3.164e+4, 1.500e+0, 1.647e-1, 1.509e+0, 6.3
2.612e+4, 1.500e+0, 1.315e-1, 1.506e+0, 5.0
2.153e+4, 1.500e+0, 1.020e-1, 1.504e+0, 3.9
1.777e+4, 1.502e+0, 7.759e-2, 1.504e+0, 3.0
1.470e+4, 1.504e+0, 5.735e-2, 1.505e+0, 2.2
1.211e+4, 1.506e+0, 3.921e-2, 1.506e+0, 1.5
1.001e+4, 1.508e+0, 2.450e-2, 1.508e+0, 0.9
8.252e+3, 1.511e+0, 6.840e-3, 1.511e+0, 0.3
6.812e+3, 1.514e+0, -4.604e-3, 1.514e+0, -0.2
5.625e+3, 1.518e+0, -1.572e-2, 1.518e+0, -0.6
4.643e+3, 1.522e+0, -2.625e-2, 1.522e+0, -1.0
3.833e+3, 1.527e+0, -3.593e-2, 1.527e+0, -1.3
3.164e+3, 1.532e+0, -4.634e-2, 1.533e+0, -1.7
2.612e+3, 1.537e+0, -5.629e-2, 1.539e+0, -2.1
2.153e+3, 1.544e+0, -6.671e-2, 1.545e+0, -2.5
1.777e+3, 1.551e+0, -7.750e-2, 1.553e+0, -2.9
1.470e+3, 1.559e+0, -8.920e-2, 1.562e+0, -3.3
1.211e+3, 1.564e+0, -1.019e-1, 1.567e+0, -3.7
1.001e+3, 1.573e+0, -1.155e-1, 1.577e+0, -4.2
8.252e+2, 1.603e+0, -1.255e-1, 1.607e+0, -4.5
6.836e+2, 1.614e+0, -1.432e-1, 1.621e+0, -5.1
5.615e+2, 1.628e+0, -1.638e-1, 1.636e+0, -5.7
4.639e+2, 1.643e+0, -1.862e-1, 1.654e+0, -6.5
3.809e+2, 1.661e+0, -2.115e-1, 1.675e+0, -7.3
3.174e+2, 1.680e+0, -2.374e-1, 1.697e+0, -8.0
2.588e+2, 1.704e+0, -2.698e-1, 1.725e+0, -9.0
2.148e+2, 1.729e+0, -3.026e-1, 1.756e+0, -9.9
1.758e+2, 1.761e+0, -3.416e-1, 1.793e+0, -11.0
1.465e+2, 1.793e+0, -3.811e-1, 1.833e+0, -12.0
1.221e+2, 1.830e+0, -4.238e-1, 1.878e+0, -13.0
9.766e+1, 1.882e+0, -4.757e-1, 1.941e+0, -14.2
8.254e+1, 1.936e+0, -5.035e-1, 2.000e+0, -14.6
6.813e+1, 1.995e+0, -5.645e-1, 2.073e+0, -15.8
5.623e+1, 2.070e+0, -6.368e-1, 2.165e+0, -17.1
4.642e+1, 2.133e+0, -6.928e-1, 2.243e+0, -18.0
3.831e+1, 2.216e+0, -7.612e-1, 2.343e+0, -19.0
3.162e+1, 2.305e+0, -8.313e-1, 2.451e+0, -19.8
2.610e+1, 2.402e+0, -9.031e-1, 2.566e+0, -20.6
2.154e+1, 2.505e+0, -9.776e-1, 2.689e+0, -21.3
1.778e+1, 2.614e+0, -1.056e+0, 2.819e+0, -22.0
1.468e+1, 2.729e+0, -1.141e+0, 2.957e+0, -22.7
1.212e+1, 2.848e+0, -1.234e+0, 3.104e+0, -23.4
1.000e+1, 2.976e+0, -1.331e+0, 3.260e+0, -24.1
8.254e+0, 3.109e+0, -1.450e+0, 3.430e+0, -25.0
6.813e+0, 3.244e+0, -1.587e+0, 3.611e+0, -26.1
5.623e+0, 3.386e+0, -1.749e+0, 3.811e+0, -27.3
4.642e+0, 3.541e+0, -1.939e+0, 4.038e+0, -28.7
3.831e+0, 3.716e+0, -2.170e+0, 4.303e+0, -30.3
3.162e+0, 3.919e+0, -2.451e+0, 4.623e+0, -32.0
2.610e+0, 4.102e+0, -2.752e+0, 4.940e+0, -33.9
2.154e+0, 4.386e+0, -3.178e+0, 5.417e+0, -35.9
1.778e+0, 4.613e+0, -3.598e+0, 5.851e+0, -38.0
1.468e+0, 5.141e+0, -4.387e+0, 6.759e+0, -40.5
1.212e+0, 5.431e+0, -4.981e+0, 7.369e+0, -42.5
1.000e+0, 5.779e+0, -5.650e+0, 8.082e+0, -44.4
8.254e-1, 6.252e+0, -6.473e+0, 8.999e+0, -46.0
6.813e-1, 6.600e+0, -7.171e+0, 9.746e+0, -47.4
5.623e-1, 7.116e+0, -8.121e+0, 1.080e+1, -48.8
4.642e-1, 7.750e+0, -9.200e+0, 1.203e+1, -49.9
3.831e-1, 8.534e+0, -1.041e+1, 1.346e+1, -50.7
3.162e-1, 9.481e+0, -1.174e+1, 1.509e+1, -51.1
2.610e-1, 1.066e+1, -1.319e+1, 1.696e+1, -51.1
2.154e-1, 1.211e+1, -1.478e+1, 1.911e+1, -50.7
1.778e-1, 1.390e+1, -1.646e+1, 2.155e+1, -49.8
1.468e-1, 1.622e+1, -1.838e+1, 2.452e+1, -48.6
1.212e-1, 1.868e+1, -1.986e+1, 2.727e+1, -46.8
1.000e-1, 2.169e+1, -2.139e+1, 3.047e+1, -44.6
