Nov. 16, 2023   21:23:35
A.C. Impedance
File: /home/mkq/documents/data/4/data460\eis-001.bin
Data Source:  Experiment
Instrument Model:  CHI760E
Header: 
Note: 

Init E (V) = 0.6
High Frequency (Hz) = 1e+5
Low Frequency (Hz) = 0.1
Imp SF
Amplitude (V) = 0.005
Quiet Time (sec) = 2
Cycles (.1-1Hz) = 1

Freq/Hz, Z'/ohm, Z"/ohm, Z/ohm, Phase/deg

9.995e+4, 1.696e+0, 5.060e-1, 1.770e+0, 16.6
8.252e+4, 1.687e+0, 4.274e-1, 1.740e+0, 14.2
6.812e+4, 1.676e+0, 3.518e-1, 1.713e+0, 11.9
5.625e+4, 1.669e+0, 2.880e-1, 1.694e+0, 9.8
4.644e+4, 1.663e+0, 2.323e-1, 1.679e+0, 8.0
3.833e+4, 1.661e+0, 1.873e-1, 1.671e+0, 6.4
3.164e+4, 1.660e+0, 1.497e-1, 1.667e+0, 5.2
2.612e+4, 1.656e+0, 1.190e-1, 1.661e+0, 4.1
2.153e+4, 1.652e+0, 9.318e-2, 1.654e+0, 3.2
1.777e+4, 1.649e+0, 7.133e-2, 1.651e+0, 2.5
1.470e+4, 1.650e+0, 5.263e-2, 1.651e+0, 1.8
1.211e+4, 1.652e+0, 3.666e-2, 1.653e+0, 1.3
1.001e+4, 1.655e+0, 2.210e-2, 1.655e+0, 0.8
8.252e+3, 1.658e+0, 8.717e-3, 1.658e+0, 0.3
6.812e+3, 1.661e+0, -2.619e-3, 1.661e+0, -0.1
5.625e+3, 1.664e+0, -1.240e-2, 1.664e+0, -0.4
4.643e+3, 1.667e+0, -2.120e-2, 1.667e+0, -0.7
3.833e+3, 1.672e+0, -2.955e-2, 1.672e+0, -1.0
3.164e+3, 1.677e+0, -3.780e-2, 1.677e+0, -1.3
2.612e+3, 1.681e+0, -4.627e-2, 1.682e+0, -1.6
2.153e+3, 1.687e+0, -5.502e-2, 1.687e+0, -1.9
1.777e+3, 1.693e+0, -6.416e-2, 1.694e+0, -2.2
1.470e+3, 1.700e+0, -7.395e-2, 1.701e+0, -2.5
1.211e+3, 1.707e+0, -8.440e-2, 1.710e+0, -2.8
1.001e+3, 1.721e+0, -9.423e-2, 1.724e+0, -3.1
8.252e+2, 1.739e+0, -1.045e-1, 1.742e+0, -3.4
6.836e+2, 1.755e+0, -1.174e-1, 1.759e+0, -3.8
5.615e+2, 1.769e+0, -1.327e-1, 1.774e+0, -4.3
4.639e+2, 1.783e+0, -1.502e-1, 1.790e+0, -4.8
3.809e+2, 1.798e+0, -1.693e-1, 1.806e+0, -5.4
3.174e+2, 1.816e+0, -1.902e-1, 1.826e+0, -6.0
2.588e+2, 1.836e+0, -2.129e-1, 1.848e+0, -6.6
2.148e+2, 1.859e+0, -2.375e-1, 1.874e+0, -7.3
1.758e+2, 1.886e+0, -2.639e-1, 1.904e+0, -8.0
1.465e+2, 1.915e+0, -2.914e-1, 1.937e+0, -8.7
1.221e+2, 1.949e+0, -3.207e-1, 1.975e+0, -9.3
9.766e+1, 1.988e+0, -3.462e-1, 2.018e+0, -9.9
8.254e+1, 2.031e+0, -3.709e-1, 2.064e+0, -10.4
6.813e+1, 2.078e+0, -4.024e-1, 2.117e+0, -11.0
5.623e+1, 2.129e+0, -4.393e-1, 2.174e+0, -11.7
4.642e+1, 2.185e+0, -4.802e-1, 2.237e+0, -12.4
3.831e+1, 2.246e+0, -5.222e-1, 2.306e+0, -13.1
3.162e+1, 2.312e+0, -5.643e-1, 2.380e+0, -13.7
2.610e+1, 2.384e+0, -6.064e-1, 2.460e+0, -14.3
2.154e+1, 2.461e+0, -6.489e-1, 2.545e+0, -14.8
1.778e+1, 2.542e+0, -6.921e-1, 2.634e+0, -15.2
1.468e+1, 2.627e+0, -7.366e-1, 2.728e+0, -15.7
1.212e+1, 2.719e+0, -7.808e-1, 2.829e+0, -16.0
1.000e+1, 2.819e+0, -8.263e-1, 2.938e+0, -16.3
8.254e+0, 2.926e+0, -8.754e-1, 3.054e+0, -16.7
6.813e+0, 3.041e+0, -9.273e-1, 3.180e+0, -17.0
5.623e+0, 3.167e+0, -9.812e-1, 3.315e+0, -17.2
4.642e+0, 3.304e+0, -1.035e+0, 3.463e+0, -17.4
3.831e+0, 3.457e+0, -1.088e+0, 3.624e+0, -17.5
3.162e+0, 3.621e+0, -1.139e+0, 3.795e+0, -17.5
2.610e+0, 3.797e+0, -1.180e+0, 3.976e+0, -17.3
2.154e+0, 3.984e+0, -1.207e+0, 4.162e+0, -16.9
1.778e+0, 4.198e+0, -1.218e+0, 4.371e+0, -16.2
1.468e+0, 4.423e+0, -1.210e+0, 4.585e+0, -15.3
1.212e+0, 4.623e+0, -1.185e+0, 4.773e+0, -14.4
1.000e+0, 4.805e+0, -1.137e+0, 4.938e+0, -13.3
8.254e-1, 4.959e+0, -1.070e+0, 5.074e+0, -12.2
6.813e-1, 5.099e+0, -9.918e-1, 5.195e+0, -11.0
5.623e-1, 5.221e+0, -9.108e-1, 5.300e+0, -9.9
4.642e-1, 5.315e+0, -7.992e-1, 5.374e+0, -8.6
3.831e-1, 5.403e+0, -7.041e-1, 5.449e+0, -7.4
3.162e-1, 5.473e+0, -6.547e-1, 5.512e+0, -6.8
2.610e-1, 5.530e+0, -5.988e-1, 5.562e+0, -6.2
2.154e-1, 5.582e+0, -5.353e-1, 5.607e+0, -5.5
1.778e-1, 5.624e+0, -4.672e-1, 5.643e+0, -4.7
1.468e-1, 5.660e+0, -4.051e-1, 5.675e+0, -4.1
1.212e-1, 5.685e+0, -3.477e-1, 5.696e+0, -3.5
1.000e-1, 5.702e+0, -2.992e-1, 5.710e+0, -3.0
