*FILE_COMMENT ""
*FILE_MD5 ""
*FILE_MEMO ""
*FILE_OPERATOR "Administrator"
*FILE_PACKAGE_NAME ""
*FILE_PART_ID "GeneralMeasurement"
*FILE_SAMPLE ""
*FILE_SYSTEM_NAME "MiniFlex"
*FILE_TYPE "RAS_RAW"
*FILE_USERGROUP "Administrators"
*FILE_VERSION "1"
*HW_ATTACHMENT_NAME_INTERNAL "ASC8"
*HW_COUNTER_ID-0 "CUT0025"
*HW_COUNTER_ID-2 "CMC0020"
*HW_COUNTER_MONOCHRO_ID "CMC0020"
*HW_COUNTER_MONOCHRO_NAME "None"
*HW_COUNTER_MONOCHRO_NAME_INTERNAL "None"
*HW_COUNTER_NAME_INTERNAL "DteX100"
*HW_COUNTER_NAME-0 "DteX100"
*HW_COUNTER_NAME-1 "None"
*HW_COUNTER_NAME-2 "None"
*HW_COUNTER_PIXEL_SIZE "0.1"
*HW_COUNTER_SELECT_NAME "DteX100"
*HW_GONIOMETER_ID "GON0021"
*HW_GONIOMETER_NAME "Standard"
*HW_GONIOMETER_NAME_INTERNAL "Standard"
*HW_GONIOMETER_RADIUS-0 "90.0"
*HW_GONIOMETER_RADIUS-1 "114.0"
*HW_GONIOMETER_RADIUS-2 "91.5"
*HW_GONIOMETER_RADIUS-3 "150.0"
*HW_GONIOMETER_RADIUS-4 "103.4"
*HW_GONIOMETER_RADIUS-5 "150.0"
*HW_GONIOMETER_RADIUS-6 "46.6"
*HW_GONIOMETER_RADIUS-7 "150.0"
*HW_I_CBO_ID "CBO0020"
*HW_I_CBO_NAME "No_unit"
*HW_I_CBO_NAME_INTERNAL "No_unit"
*HW_I_MONOCHRO_NAME_INTERNAL "Manual"
*HW_I_OPT_ID-1 "CBO0020"
*HW_I_PRIMARY_NAME_INTERNAL "No_unit"
*HW_I_SLIT_NAME_INTERNAL "Manual"
*HW_R_ATTENUATER_AUTOMODE "0"
*HW_R_ATTENUATER_ID "ATN0020"
*HW_R_ATTENUATER_NAME "No_unit"
*HW_R_ATTENUATOR_NAME_INTERNAL "No_unit"
*HW_R_OPT_ID-1 "RCR0023"
*HW_R_OPT_ID-4 "ATN0020"
*HW_R_ROD_ID "RCR0023"
*HW_R_ROD_NAME "No_unit"
*HW_R_ROD_NAME_INTERNAL "No_unit"
*HW_R_RPS_NAME_INTERNAL "Manual"
*HW_R_RS_NAME_INTERNAL "Manual"
*HW_R_SS_NAME_INTERNAL "Manual"
*HW_SAMPLE_HOLDER_NAME_INTERNAL "None"
*HW_SAMPLE_NAME "None"
*HW_SAMPLE_NAME_INTERNAL "None"
*HW_SAMPLE_PLATE_NAME "None"
*HW_SAMPLE_PLATE_NAME_INTERNAL "None"
*HW_SAMPLE_SPACER_NAME "None"
*HW_SAMPLE_SPACER_NAME_INTERNAL "None"
*HW_USERINFO_CATALOG_NO ""
*HW_USERINFO_INSTRUMENT_ID ""
*HW_USERINFO_INSTRUMENT_NAME ""
*HW_USERINFO_INSTRUMENT_NO ""
*HW_USERINFO_MODEL ""
*HW_USERINFO_ORDER_NO ""
*HW_USERINFO_SERIAL_NO ""
*HW_USERINFO_VERIFY_INSTRUMENT_ID "00-07-fe-03-00-df"
*HW_VER_RCD_COUNTER_UNIT "N/A"
*HW_VER_RCD_CPU "10.0.1"
*HW_VER_RCD_FPGA "3.0.1"
*HW_VER_RCD_GONIO_UNIT "0.0.0"
*HW_VER_RCD_INCIDENT_UNIT "0.0.0"
*HW_VER_RCD_RECEIVING_UNIT "0.0.0"
*HW_VER_RCD_TYPE "RINCII"
*HW_VER_XGC_CPU "10.0.1"
*HW_VER_XGC_CW "5.0.0"
*HW_VER_XGC_HV "5.0.0"
*HW_VER_XGC_RS1 "5.0.0"
*HW_VER_XGC_RS2 "N/A"
*HW_VER_XGC_RT "N/A"
*HW_VER_XGC_TYPE "RINCII"
*HW_XG_CURRENT_UNIT "mA"
*HW_XG_FOCUS "0.4mm x 8mm"
*HW_XG_FOCUS_TYPE "Fine"
*HW_XG_TARGET_ATOMIC_NUMBER "29"
*HW_XG_TARGET_NAME "Cu"
*HW_XG_TYPE "Hermetic"
*HW_XG_VOLTAGE_UNIT "kV"
*HW_XG_WAVE_LENGTH_ALPHA1 "1.540593"
*HW_XG_WAVE_LENGTH_ALPHA2 "1.544414"
*HW_XG_WAVE_LENGTH_BETA "1.392246"
*HW_XG_WAVE_LENGTH_UNIT "Angstrom"
*MEAS_COND_AXIS_NAME_INTERNAL-0 "TwoThetaTheta"
*MEAS_COND_AXIS_NAME_INTERNAL-1 "IncidentSollerSlit"
*MEAS_COND_AXIS_NAME_INTERNAL-10 "Changer"
*MEAS_COND_AXIS_NAME_INTERNAL-11 "ReceivingSlitBox1"
*MEAS_COND_AXIS_NAME_INTERNAL-12 "ReceivingSlitBox1"
*MEAS_COND_AXIS_NAME_INTERNAL-13 "ReceivingSlitBox1"
*MEAS_COND_AXIS_NAME_INTERNAL-14 "Filter"
*MEAS_COND_AXIS_NAME_INTERNAL-15 "ReceivingSollerSlit"
*MEAS_COND_AXIS_NAME_INTERNAL-16 "ReceivingSlitBox2"
*MEAS_COND_AXIS_NAME_INTERNAL-17 "ReceivingSlitBox2"
*MEAS_COND_AXIS_NAME_INTERNAL-18 "ReceivingSlitBox2"
*MEAS_COND_AXIS_NAME_INTERNAL-19 "PHA"
*MEAS_COND_AXIS_NAME_INTERNAL-2 "IncidentSlitBox"
*MEAS_COND_AXIS_NAME_INTERNAL-20 "RS3"
*MEAS_COND_AXIS_NAME_INTERNAL-21 "Target_TargetTime"
*MEAS_COND_AXIS_NAME_INTERNAL-22 "Target_XrayOnTime"
*MEAS_COND_AXIS_NAME_INTERNAL-23 "Target_TMPTime"
*MEAS_COND_AXIS_NAME_INTERNAL-24 "Target_RPTime"
*MEAS_COND_AXIS_NAME_INTERNAL-25 "Target_FilamentTime"
*MEAS_COND_AXIS_NAME_INTERNAL-26 "Target_IG"
*MEAS_COND_AXIS_NAME_INTERNAL-27 "Target_GP"
*MEAS_COND_AXIS_NAME_INTERNAL-28 "Target_FC"
*MEAS_COND_AXIS_NAME_INTERNAL-29 "HVPS_Bias"
*MEAS_COND_AXIS_NAME_INTERNAL-3 "IncidentSlitBox"
*MEAS_COND_AXIS_NAME_INTERNAL-30 "HVPS_HVPSTime"
*MEAS_COND_AXIS_NAME_INTERNAL-31 "HVPS_Type1Time"
*MEAS_COND_AXIS_NAME_INTERNAL-32 "HVPS_Type2Time"
*MEAS_COND_AXIS_NAME_INTERNAL-33 "HVPS_Type3Time"
*MEAS_COND_AXIS_NAME_INTERNAL-34 "CW_IERTime"
*MEAS_COND_AXIS_NAME_INTERNAL-35 "CW_ECTime"
*MEAS_COND_AXIS_NAME_INTERNAL-36 "CW_Flow1"
*MEAS_COND_AXIS_NAME_INTERNAL-37 "CW_Temperature1"
*MEAS_COND_AXIS_NAME_INTERNAL-38 "CW_Pressure1"
*MEAS_COND_AXIS_NAME_INTERNAL-39 "CW_PressureIn"
*MEAS_COND_AXIS_NAME_INTERNAL-4 "IncidentSlitBox"
*MEAS_COND_AXIS_NAME_INTERNAL-40 "CW_PressureOut"
*MEAS_COND_AXIS_NAME_INTERNAL-41 "CW_Flow2"
*MEAS_COND_AXIS_NAME_INTERNAL-42 "CW_Temperature2"
*MEAS_COND_AXIS_NAME_INTERNAL-43 "CW_Pressure2"
*MEAS_COND_AXIS_NAME_INTERNAL-44 "RE_EnclosureTemp"
*MEAS_COND_AXIS_NAME_INTERNAL-45 "RE_EnclosureHummidity"
*MEAS_COND_AXIS_NAME_INTERNAL-46 "RE_CabinetTemp"
*MEAS_COND_AXIS_NAME_INTERNAL-47 "RE_RPTemp"
*MEAS_COND_AXIS_NAME_INTERNAL-48 "RE_ShutterAXrayOnTime"
*MEAS_COND_AXIS_NAME_INTERNAL-49 "RE_ShutterATimes"
*MEAS_COND_AXIS_NAME_INTERNAL-5 "IncidentAxdSlit"
*MEAS_COND_AXIS_NAME_INTERNAL-50 "RE_ShutterAOpenCloseTime"
*MEAS_COND_AXIS_NAME_INTERNAL-51 "RE_ShutterACloseOpenTime"
*MEAS_COND_AXIS_NAME_INTERNAL-52 "RE_ShutterBXrayOnTime"
*MEAS_COND_AXIS_NAME_INTERNAL-53 "RE_ShutterBTimes"
*MEAS_COND_AXIS_NAME_INTERNAL-54 "RE_ShutterBOpenCloseTime"
*MEAS_COND_AXIS_NAME_INTERNAL-55 "RE_ShutterBCloseOpenTime"
*MEAS_COND_AXIS_NAME_INTERNAL-56 "RE_XrayWarningRamp"
*MEAS_COND_AXIS_NAME_INTERNAL-57 "RE_ShutterAInstallation"
*MEAS_COND_AXIS_NAME_INTERNAL-58 "RE_ShutterARamp"
*MEAS_COND_AXIS_NAME_INTERNAL-59 "RE_ShutterBInstallation"
*MEAS_COND_AXIS_NAME_INTERNAL-6 "IncidentAxdSlit"
*MEAS_COND_AXIS_NAME_INTERNAL-60 "RE_ShutterBRamp"
*MEAS_COND_AXIS_NAME_INTERNAL-61 "RE_ExtShutterCLS"
*MEAS_COND_AXIS_NAME_INTERNAL-62 "RE_ExtXrayOFF"
*MEAS_COND_AXIS_NAME_INTERNAL-63 "RE_ExtSafetyCircuit"
*MEAS_COND_AXIS_NAME_INTERNAL-64 "Version_CPU"
*MEAS_COND_AXIS_NAME_INTERNAL-65 "Version_RS1"
*MEAS_COND_AXIS_NAME_INTERNAL-66 "Version_RS2"
*MEAS_COND_AXIS_NAME_INTERNAL-67 "Version_HV"
*MEAS_COND_AXIS_NAME_INTERNAL-68 "Version_CW"
*MEAS_COND_AXIS_NAME_INTERNAL-69 "Version_RT"
*MEAS_COND_AXIS_NAME_INTERNAL-7 "IncidentAxdSlit"
*MEAS_COND_AXIS_NAME_INTERNAL-70 "IncidentPrimary"
*MEAS_COND_AXIS_NAME_INTERNAL-71 "IncidentMonochromator"
*MEAS_COND_AXIS_NAME_INTERNAL-72 "ReceivingOptics"
*MEAS_COND_AXIS_NAME_INTERNAL-73 "CounterMonochromatorKind"
*MEAS_COND_AXIS_NAME_INTERNAL-8 "Filter"
*MEAS_COND_AXIS_NAME_INTERNAL-9 "Beta"
*MEAS_COND_AXIS_NAME-0 "TwoThetaTheta"
*MEAS_COND_AXIS_NAME-1 "IncidentSollerSlit"
*MEAS_COND_AXIS_NAME-10 "Changer"
*MEAS_COND_AXIS_NAME-11 "ReceivingSlitBox1"
*MEAS_COND_AXIS_NAME-12 "ReceivingSlitBox1-_Axis"
*MEAS_COND_AXIS_NAME-13 "SlitSS"
*MEAS_COND_AXIS_NAME-14 "Filter"
*MEAS_COND_AXIS_NAME-15 "ReceivingSollerSlit"
*MEAS_COND_AXIS_NAME-16 "ReceivingSlitBox2"
*MEAS_COND_AXIS_NAME-17 "ReceivingSlitBox2-_Axis"
*MEAS_COND_AXIS_NAME-18 "SlitRS"
*MEAS_COND_AXIS_NAME-19 "PHA"
*MEAS_COND_AXIS_NAME-2 "IncidentSlitBox"
*MEAS_COND_AXIS_NAME-20 "RS3"
*MEAS_COND_AXIS_NAME-21 "Target_TargetTime"
*MEAS_COND_AXIS_NAME-22 "Target_XrayOnTime"
*MEAS_COND_AXIS_NAME-23 "Target_TMPTime"
*MEAS_COND_AXIS_NAME-24 "Target_RPTime"
*MEAS_COND_AXIS_NAME-25 "Target_FilamentTime"
*MEAS_COND_AXIS_NAME-26 "Target_IG"
*MEAS_COND_AXIS_NAME-27 "Target_GP"
*MEAS_COND_AXIS_NAME-28 "Target_FC"
*MEAS_COND_AXIS_NAME-29 "HVPS_Bias"
*MEAS_COND_AXIS_NAME-3 "IncidentSlitBox-_Axis"
*MEAS_COND_AXIS_NAME-30 "HVPS_HVPSTime"
*MEAS_COND_AXIS_NAME-31 "HVPS_Type1Time"
*MEAS_COND_AXIS_NAME-32 "HVPS_Type2Time"
*MEAS_COND_AXIS_NAME-33 "HVPS_Type3Time"
*MEAS_COND_AXIS_NAME-34 "CW_IERTime"
*MEAS_COND_AXIS_NAME-35 "CW_ECTime"
*MEAS_COND_AXIS_NAME-36 "CW_Flow1"
*MEAS_COND_AXIS_NAME-37 "CW_Temperature1"
*MEAS_COND_AXIS_NAME-38 "CW_Pressure1"
*MEAS_COND_AXIS_NAME-39 "CW_PressureIn"
*MEAS_COND_AXIS_NAME-4 "SlitDS"
*MEAS_COND_AXIS_NAME-40 "CW_PressureOut"
*MEAS_COND_AXIS_NAME-41 "CW_Flow2"
*MEAS_COND_AXIS_NAME-42 "CW_Temperature2"
*MEAS_COND_AXIS_NAME-43 "CW_Pressure2"
*MEAS_COND_AXIS_NAME-44 "RE_EnclosureTemp"
*MEAS_COND_AXIS_NAME-45 "RE_EnclosureHummidity"
*MEAS_COND_AXIS_NAME-46 "RE_CabinetTemp"
*MEAS_COND_AXIS_NAME-47 "RE_RPTemp"
*MEAS_COND_AXIS_NAME-48 "RE_ShutterAXrayOnTime"
*MEAS_COND_AXIS_NAME-49 "RE_ShutterATimes"
*MEAS_COND_AXIS_NAME-5 "IncidentAxdSlit"
*MEAS_COND_AXIS_NAME-50 "RE_ShutterAOpenCloseTime"
*MEAS_COND_AXIS_NAME-51 "RE_ShutterACloseOpenTime"
*MEAS_COND_AXIS_NAME-52 "RE_ShutterBXrayOnTime"
*MEAS_COND_AXIS_NAME-53 "RE_ShutterBTimes"
*MEAS_COND_AXIS_NAME-54 "RE_ShutterBOpenCloseTime"
*MEAS_COND_AXIS_NAME-55 "RE_ShutterBCloseOpenTime"
*MEAS_COND_AXIS_NAME-56 "RE_XrayWarningRamp"
*MEAS_COND_AXIS_NAME-57 "RE_ShutterAInstallation"
*MEAS_COND_AXIS_NAME-58 "RE_ShutterARamp"
*MEAS_COND_AXIS_NAME-59 "RE_ShutterBInstallation"
*MEAS_COND_AXIS_NAME-6 "LLS"
*MEAS_COND_AXIS_NAME-60 "RE_ShutterBRamp"
*MEAS_COND_AXIS_NAME-61 "RE_ExtShutterCLS"
*MEAS_COND_AXIS_NAME-62 "RE_ExtXrayOFF"
*MEAS_COND_AXIS_NAME-63 "RE_ExtSafetyCircuit"
*MEAS_COND_AXIS_NAME-64 "Version_CPU"
*MEAS_COND_AXIS_NAME-65 "Version_RS1"
*MEAS_COND_AXIS_NAME-66 "Version_RS2"
*MEAS_COND_AXIS_NAME-67 "Version_HV"
*MEAS_COND_AXIS_NAME-68 "Version_CW"
*MEAS_COND_AXIS_NAME-69 "Version_RT"
*MEAS_COND_AXIS_NAME-7 "DHLSlit"
*MEAS_COND_AXIS_NAME-70 "IncidentPrimary"
*MEAS_COND_AXIS_NAME-71 "IncidentMonochromator"
*MEAS_COND_AXIS_NAME-72 "ReceivingOptics"
*MEAS_COND_AXIS_NAME-73 "CounterMonochromatorKind"
*MEAS_COND_AXIS_NAME-8 "Filter"
*MEAS_COND_AXIS_NAME-9 "Beta"
*MEAS_COND_AXIS_OFFSET-0 "0"
*MEAS_COND_AXIS_OFFSET-1 "0"
*MEAS_COND_AXIS_OFFSET-10 "0"
*MEAS_COND_AXIS_OFFSET-11 "0"
*MEAS_COND_AXIS_OFFSET-12 "0"
*MEAS_COND_AXIS_OFFSET-13 "0"
*MEAS_COND_AXIS_OFFSET-14 "0"
*MEAS_COND_AXIS_OFFSET-15 "0"
*MEAS_COND_AXIS_OFFSET-16 "0"
*MEAS_COND_AXIS_OFFSET-17 "0"
*MEAS_COND_AXIS_OFFSET-18 "0"
*MEAS_COND_AXIS_OFFSET-19 "0"
*MEAS_COND_AXIS_OFFSET-2 "0"
*MEAS_COND_AXIS_OFFSET-20 "0"
*MEAS_COND_AXIS_OFFSET-21 "0"
*MEAS_COND_AXIS_OFFSET-22 "0"
*MEAS_COND_AXIS_OFFSET-23 "0"
*MEAS_COND_AXIS_OFFSET-24 "0"
*MEAS_COND_AXIS_OFFSET-25 "0"
*MEAS_COND_AXIS_OFFSET-26 "0"
*MEAS_COND_AXIS_OFFSET-27 "0"
*MEAS_COND_AXIS_OFFSET-28 "0"
*MEAS_COND_AXIS_OFFSET-29 "0"
*MEAS_COND_AXIS_OFFSET-3 "0"
*MEAS_COND_AXIS_OFFSET-30 "0"
*MEAS_COND_AXIS_OFFSET-31 "0"
*MEAS_COND_AXIS_OFFSET-32 "0"
*MEAS_COND_AXIS_OFFSET-33 "0"
*MEAS_COND_AXIS_OFFSET-34 "0"
*MEAS_COND_AXIS_OFFSET-35 "0"
*MEAS_COND_AXIS_OFFSET-36 "0"
*MEAS_COND_AXIS_OFFSET-37 "0"
*MEAS_COND_AXIS_OFFSET-38 "0"
*MEAS_COND_AXIS_OFFSET-39 "0"
*MEAS_COND_AXIS_OFFSET-4 "0"
*MEAS_COND_AXIS_OFFSET-40 "0"
*MEAS_COND_AXIS_OFFSET-41 "0"
*MEAS_COND_AXIS_OFFSET-42 "0"
*MEAS_COND_AXIS_OFFSET-43 "0"
*MEAS_COND_AXIS_OFFSET-44 "0"
*MEAS_COND_AXIS_OFFSET-45 "0"
*MEAS_COND_AXIS_OFFSET-46 "0"
*MEAS_COND_AXIS_OFFSET-47 "0"
*MEAS_COND_AXIS_OFFSET-48 "0"
*MEAS_COND_AXIS_OFFSET-49 "0"
*MEAS_COND_AXIS_OFFSET-5 "0"
*MEAS_COND_AXIS_OFFSET-50 "0"
*MEAS_COND_AXIS_OFFSET-51 "0"
*MEAS_COND_AXIS_OFFSET-52 "0"
*MEAS_COND_AXIS_OFFSET-53 "0"
*MEAS_COND_AXIS_OFFSET-54 "0"
*MEAS_COND_AXIS_OFFSET-55 "0"
*MEAS_COND_AXIS_OFFSET-56 "0"
*MEAS_COND_AXIS_OFFSET-57 "0"
*MEAS_COND_AXIS_OFFSET-58 "0"
*MEAS_COND_AXIS_OFFSET-59 "0"
*MEAS_COND_AXIS_OFFSET-6 "0"
*MEAS_COND_AXIS_OFFSET-60 "0"
*MEAS_COND_AXIS_OFFSET-61 "0"
*MEAS_COND_AXIS_OFFSET-62 "0"
*MEAS_COND_AXIS_OFFSET-63 "0"
*MEAS_COND_AXIS_OFFSET-64 "0"
*MEAS_COND_AXIS_OFFSET-65 "0"
*MEAS_COND_AXIS_OFFSET-66 "0"
*MEAS_COND_AXIS_OFFSET-67 "0"
*MEAS_COND_AXIS_OFFSET-68 "0"
*MEAS_COND_AXIS_OFFSET-69 "0"
*MEAS_COND_AXIS_OFFSET-7 "0"
*MEAS_COND_AXIS_OFFSET-70 "0"
*MEAS_COND_AXIS_OFFSET-71 "0"
*MEAS_COND_AXIS_OFFSET-72 "0"
*MEAS_COND_AXIS_OFFSET-73 "0"
*MEAS_COND_AXIS_OFFSET-8 "0"
*MEAS_COND_AXIS_OFFSET-9 "0"
*MEAS_COND_AXIS_POSITION-0 "12.0000"
*MEAS_COND_AXIS_POSITION-1 "Soller_slit_2.5deg"
*MEAS_COND_AXIS_POSITION-10 "1"
*MEAS_COND_AXIS_POSITION-11 "8.0mm"
*MEAS_COND_AXIS_POSITION-12 "8.0mm"
*MEAS_COND_AXIS_POSITION-13 "8.0mm"
*MEAS_COND_AXIS_POSITION-14 "K_beta_x1.5"
*MEAS_COND_AXIS_POSITION-15 "Soller_slit_2.5deg"
*MEAS_COND_AXIS_POSITION-16 "Open"
*MEAS_COND_AXIS_POSITION-17 "Open"
*MEAS_COND_AXIS_POSITION-18 "Open"
*MEAS_COND_AXIS_POSITION-19 "43"
*MEAS_COND_AXIS_POSITION-2 "1.25deg"
*MEAS_COND_AXIS_POSITION-20 "Open"
*MEAS_COND_AXIS_POSITION-3 "1.25deg"
*MEAS_COND_AXIS_POSITION-4 "1.25deg"
*MEAS_COND_AXIS_POSITION-5 "10mm"
*MEAS_COND_AXIS_POSITION-6 "10mm"
*MEAS_COND_AXIS_POSITION-7 "10mm"
*MEAS_COND_AXIS_POSITION-70 "No_unit"
*MEAS_COND_AXIS_POSITION-71 "Manual"
*MEAS_COND_AXIS_POSITION-72 "No_unit"
*MEAS_COND_AXIS_POSITION-73 "None"
*MEAS_COND_AXIS_POSITION-8 "None"
*MEAS_COND_AXIS_RESOLUTION-0 "0.0025"
*MEAS_COND_AXIS_RESOLUTION-1 ""
*MEAS_COND_AXIS_RESOLUTION-10 "1"
*MEAS_COND_AXIS_RESOLUTION-11 ""
*MEAS_COND_AXIS_RESOLUTION-12 ""
*MEAS_COND_AXIS_RESOLUTION-13 ""
*MEAS_COND_AXIS_RESOLUTION-14 ""
*MEAS_COND_AXIS_RESOLUTION-15 ""
*MEAS_COND_AXIS_RESOLUTION-16 ""
*MEAS_COND_AXIS_RESOLUTION-17 ""
*MEAS_COND_AXIS_RESOLUTION-18 ""
*MEAS_COND_AXIS_RESOLUTION-19 "1"
*MEAS_COND_AXIS_RESOLUTION-2 ""
*MEAS_COND_AXIS_RESOLUTION-20 "0.1"
*MEAS_COND_AXIS_RESOLUTION-21 "0.01"
*MEAS_COND_AXIS_RESOLUTION-22 "0.010000"
*MEAS_COND_AXIS_RESOLUTION-23 "0.01"
*MEAS_COND_AXIS_RESOLUTION-24 "0.01"
*MEAS_COND_AXIS_RESOLUTION-25 "0.01"
*MEAS_COND_AXIS_RESOLUTION-26 "1"
*MEAS_COND_AXIS_RESOLUTION-27 "1"
*MEAS_COND_AXIS_RESOLUTION-28 "0.01"
*MEAS_COND_AXIS_RESOLUTION-29 "1"
*MEAS_COND_AXIS_RESOLUTION-3 ""
*MEAS_COND_AXIS_RESOLUTION-30 "0.01"
*MEAS_COND_AXIS_RESOLUTION-31 "0.01"
*MEAS_COND_AXIS_RESOLUTION-32 "0.01"
*MEAS_COND_AXIS_RESOLUTION-33 "0.01"
*MEAS_COND_AXIS_RESOLUTION-34 "0.010000"
*MEAS_COND_AXIS_RESOLUTION-35 "1"
*MEAS_COND_AXIS_RESOLUTION-36 "0.100000"
*MEAS_COND_AXIS_RESOLUTION-37 "1.000000"
*MEAS_COND_AXIS_RESOLUTION-38 "0.010000"
*MEAS_COND_AXIS_RESOLUTION-39 "0.01"
*MEAS_COND_AXIS_RESOLUTION-4 ""
*MEAS_COND_AXIS_RESOLUTION-40 "0.01"
*MEAS_COND_AXIS_RESOLUTION-41 "0.1"
*MEAS_COND_AXIS_RESOLUTION-42 "1"
*MEAS_COND_AXIS_RESOLUTION-43 "0.01"
*MEAS_COND_AXIS_RESOLUTION-44 "1.000000"
*MEAS_COND_AXIS_RESOLUTION-45 "1"
*MEAS_COND_AXIS_RESOLUTION-46 "1.000000"
*MEAS_COND_AXIS_RESOLUTION-47 "1"
*MEAS_COND_AXIS_RESOLUTION-48 "0.01"
*MEAS_COND_AXIS_RESOLUTION-49 "1"
*MEAS_COND_AXIS_RESOLUTION-5 ""
*MEAS_COND_AXIS_RESOLUTION-50 "1"
*MEAS_COND_AXIS_RESOLUTION-51 "1"
*MEAS_COND_AXIS_RESOLUTION-52 "0.01"
*MEAS_COND_AXIS_RESOLUTION-53 "1.000000"
*MEAS_COND_AXIS_RESOLUTION-54 "1.000000"
*MEAS_COND_AXIS_RESOLUTION-55 "1.000000"
*MEAS_COND_AXIS_RESOLUTION-56 "-"
*MEAS_COND_AXIS_RESOLUTION-57 "-"
*MEAS_COND_AXIS_RESOLUTION-58 "-"
*MEAS_COND_AXIS_RESOLUTION-59 "1.000000"
*MEAS_COND_AXIS_RESOLUTION-6 ""
*MEAS_COND_AXIS_RESOLUTION-60 "-"
*MEAS_COND_AXIS_RESOLUTION-61 "-"
*MEAS_COND_AXIS_RESOLUTION-62 "-"
*MEAS_COND_AXIS_RESOLUTION-63 "1.000000"
*MEAS_COND_AXIS_RESOLUTION-64 "1.000000"
*MEAS_COND_AXIS_RESOLUTION-65 "1.000000"
*MEAS_COND_AXIS_RESOLUTION-66 "1.000000"
*MEAS_COND_AXIS_RESOLUTION-67 "1.000000"
*MEAS_COND_AXIS_RESOLUTION-68 "1.000000"
*MEAS_COND_AXIS_RESOLUTION-69 "1.000000"
*MEAS_COND_AXIS_RESOLUTION-7 ""
*MEAS_COND_AXIS_RESOLUTION-8 ""
*MEAS_COND_AXIS_RESOLUTION-9 "0.9"
*MEAS_COND_AXIS_SPEED_RESOLUTION-9 "0.1"
*MEAS_COND_AXIS_SPEED_UNIT-9 "rpm"
*MEAS_COND_AXIS_SPEED-9 "80"
*MEAS_COND_AXIS_STATE-0 "Scan"
*MEAS_COND_AXIS_STATE-1 "Fixed"
*MEAS_COND_AXIS_STATE-10 "Fixed"
*MEAS_COND_AXIS_STATE-11 "Fixed"
*MEAS_COND_AXIS_STATE-12 "Fixed"
*MEAS_COND_AXIS_STATE-13 "Fixed"
*MEAS_COND_AXIS_STATE-14 "Fixed"
*MEAS_COND_AXIS_STATE-15 "Fixed"
*MEAS_COND_AXIS_STATE-16 "Fixed"
*MEAS_COND_AXIS_STATE-17 "Fixed"
*MEAS_COND_AXIS_STATE-18 "Fixed"
*MEAS_COND_AXIS_STATE-19 "Fixed"
*MEAS_COND_AXIS_STATE-2 "Fixed"
*MEAS_COND_AXIS_STATE-20 "Fixed"
*MEAS_COND_AXIS_STATE-21 "Fixed"
*MEAS_COND_AXIS_STATE-22 "Fixed"
*MEAS_COND_AXIS_STATE-23 "Fixed"
*MEAS_COND_AXIS_STATE-24 "Fixed"
*MEAS_COND_AXIS_STATE-25 "Fixed"
*MEAS_COND_AXIS_STATE-26 "Fixed"
*MEAS_COND_AXIS_STATE-27 "Fixed"
*MEAS_COND_AXIS_STATE-28 "Fixed"
*MEAS_COND_AXIS_STATE-29 "Fixed"
*MEAS_COND_AXIS_STATE-3 "Fixed"
*MEAS_COND_AXIS_STATE-30 "Fixed"
*MEAS_COND_AXIS_STATE-31 "Fixed"
*MEAS_COND_AXIS_STATE-32 "Fixed"
*MEAS_COND_AXIS_STATE-33 "Fixed"
*MEAS_COND_AXIS_STATE-34 "Fixed"
*MEAS_COND_AXIS_STATE-35 "Fixed"
*MEAS_COND_AXIS_STATE-36 "Fixed"
*MEAS_COND_AXIS_STATE-37 "Fixed"
*MEAS_COND_AXIS_STATE-38 "Fixed"
*MEAS_COND_AXIS_STATE-39 "Fixed"
*MEAS_COND_AXIS_STATE-4 "Fixed"
*MEAS_COND_AXIS_STATE-40 "Fixed"
*MEAS_COND_AXIS_STATE-41 "Fixed"
*MEAS_COND_AXIS_STATE-42 "Fixed"
*MEAS_COND_AXIS_STATE-43 "Fixed"
*MEAS_COND_AXIS_STATE-44 "Fixed"
*MEAS_COND_AXIS_STATE-45 "Fixed"
*MEAS_COND_AXIS_STATE-46 "Fixed"
*MEAS_COND_AXIS_STATE-47 "Fixed"
*MEAS_COND_AXIS_STATE-48 "Fixed"
*MEAS_COND_AXIS_STATE-49 "Fixed"
*MEAS_COND_AXIS_STATE-5 "Fixed"
*MEAS_COND_AXIS_STATE-50 "Fixed"
*MEAS_COND_AXIS_STATE-51 "Fixed"
*MEAS_COND_AXIS_STATE-52 "Fixed"
*MEAS_COND_AXIS_STATE-53 "Fixed"
*MEAS_COND_AXIS_STATE-54 "Fixed"
*MEAS_COND_AXIS_STATE-55 "Fixed"
*MEAS_COND_AXIS_STATE-56 "Fixed"
*MEAS_COND_AXIS_STATE-57 "Fixed"
*MEAS_COND_AXIS_STATE-58 "Fixed"
*MEAS_COND_AXIS_STATE-59 "Fixed"
*MEAS_COND_AXIS_STATE-6 "Fixed"
*MEAS_COND_AXIS_STATE-60 "Fixed"
*MEAS_COND_AXIS_STATE-61 "Fixed"
*MEAS_COND_AXIS_STATE-62 "Fixed"
*MEAS_COND_AXIS_STATE-63 "Fixed"
*MEAS_COND_AXIS_STATE-64 "Fixed"
*MEAS_COND_AXIS_STATE-65 "Fixed"
*MEAS_COND_AXIS_STATE-66 "Fixed"
*MEAS_COND_AXIS_STATE-67 "Fixed"
*MEAS_COND_AXIS_STATE-68 "Fixed"
*MEAS_COND_AXIS_STATE-69 "Fixed"
*MEAS_COND_AXIS_STATE-7 "Fixed"
*MEAS_COND_AXIS_STATE-8 "Fixed"
*MEAS_COND_AXIS_STATE-9 "Rotation"
*MEAS_COND_AXIS_UNIT-0 "deg"
*MEAS_COND_AXIS_UNIT-1 ""
*MEAS_COND_AXIS_UNIT-10 ""
*MEAS_COND_AXIS_UNIT-11 ""
*MEAS_COND_AXIS_UNIT-12 ""
*MEAS_COND_AXIS_UNIT-13 ""
*MEAS_COND_AXIS_UNIT-14 ""
*MEAS_COND_AXIS_UNIT-15 ""
*MEAS_COND_AXIS_UNIT-16 ""
*MEAS_COND_AXIS_UNIT-17 ""
*MEAS_COND_AXIS_UNIT-18 ""
*MEAS_COND_AXIS_UNIT-19 "div"
*MEAS_COND_AXIS_UNIT-2 ""
*MEAS_COND_AXIS_UNIT-20 ""
*MEAS_COND_AXIS_UNIT-21 "H"
*MEAS_COND_AXIS_UNIT-22 "H"
*MEAS_COND_AXIS_UNIT-23 "H"
*MEAS_COND_AXIS_UNIT-24 "H"
*MEAS_COND_AXIS_UNIT-25 "H"
*MEAS_COND_AXIS_UNIT-26 "mV"
*MEAS_COND_AXIS_UNIT-27 "V"
*MEAS_COND_AXIS_UNIT-28 "V"
*MEAS_COND_AXIS_UNIT-29 "V"
*MEAS_COND_AXIS_UNIT-3 ""
*MEAS_COND_AXIS_UNIT-30 "H"
*MEAS_COND_AXIS_UNIT-31 "H"
*MEAS_COND_AXIS_UNIT-32 "H"
*MEAS_COND_AXIS_UNIT-33 "H"
*MEAS_COND_AXIS_UNIT-34 "H"
*MEAS_COND_AXIS_UNIT-35 "uS/m"
*MEAS_COND_AXIS_UNIT-36 "L/min"
*MEAS_COND_AXIS_UNIT-37 "degree"
*MEAS_COND_AXIS_UNIT-38 "MPa"
*MEAS_COND_AXIS_UNIT-39 "MPa"
*MEAS_COND_AXIS_UNIT-4 ""
*MEAS_COND_AXIS_UNIT-40 "MPa"
*MEAS_COND_AXIS_UNIT-41 "L/min"
*MEAS_COND_AXIS_UNIT-42 "C"
*MEAS_COND_AXIS_UNIT-43 "MPa"
*MEAS_COND_AXIS_UNIT-44 "degree"
*MEAS_COND_AXIS_UNIT-45 "percent"
*MEAS_COND_AXIS_UNIT-46 "degree"
*MEAS_COND_AXIS_UNIT-47 "C"
*MEAS_COND_AXIS_UNIT-48 "H"
*MEAS_COND_AXIS_UNIT-49 "time"
*MEAS_COND_AXIS_UNIT-5 ""
*MEAS_COND_AXIS_UNIT-50 "msec"
*MEAS_COND_AXIS_UNIT-51 "msec"
*MEAS_COND_AXIS_UNIT-52 "H"
*MEAS_COND_AXIS_UNIT-53 "times"
*MEAS_COND_AXIS_UNIT-54 "msec"
*MEAS_COND_AXIS_UNIT-55 "msec"
*MEAS_COND_AXIS_UNIT-56 "-"
*MEAS_COND_AXIS_UNIT-57 "-"
*MEAS_COND_AXIS_UNIT-58 "-"
*MEAS_COND_AXIS_UNIT-59 ""
*MEAS_COND_AXIS_UNIT-6 ""
*MEAS_COND_AXIS_UNIT-60 "-"
*MEAS_COND_AXIS_UNIT-61 "-"
*MEAS_COND_AXIS_UNIT-62 "-"
*MEAS_COND_AXIS_UNIT-63 ""
*MEAS_COND_AXIS_UNIT-64 ""
*MEAS_COND_AXIS_UNIT-65 ""
*MEAS_COND_AXIS_UNIT-66 ""
*MEAS_COND_AXIS_UNIT-67 ""
*MEAS_COND_AXIS_UNIT-68 ""
*MEAS_COND_AXIS_UNIT-69 ""
*MEAS_COND_AXIS_UNIT-7 ""
*MEAS_COND_AXIS_UNIT-70 ""
*MEAS_COND_AXIS_UNIT-71 ""
*MEAS_COND_AXIS_UNIT-72 ""
*MEAS_COND_AXIS_UNIT-73 ""
*MEAS_COND_AXIS_UNIT-8 ""
*MEAS_COND_AXIS_UNIT-9 "deg"
*MEAS_COND_COUNTER_CENTER_X "0.5"
*MEAS_COND_COUNTER_CENTER_Y "67.34"
*MEAS_COND_COUNTER_COUNTMODE "Differential"
*MEAS_COND_COUNTER_DEADTIMECORRECTION "Enabled"
*MEAS_COND_COUNTER_DISTANCE "150"
*MEAS_COND_COUNTER_ENERGYMODE "XRFReduction"
*MEAS_COND_COUNTER_PHA_UNIT "div"
*MEAS_COND_COUNTER_PHABASE "43"
*MEAS_COND_COUNTER_PHAWINDOW "21"
*MEAS_COND_COUNTER_PITCH_X "20"
*MEAS_COND_COUNTER_PITCH_Y "0.1"
*MEAS_COND_COUNTER_PITCHUNIT "mm"
*MEAS_COND_COUNTER_VALIDWIDTH_X "1"
*MEAS_COND_COUNTER_VALIDWIDTH_Y "200"
*MEAS_COND_XG_CURRENT "15"
*MEAS_COND_XG_VOLTAGE "40"
*MEAS_COND_XG_WAVE_TYPE "Ka"
*MEAS_DATA_COUNT "3751"
*MEAS_SCAN_AXIS_X "TwoThetaTheta"
*MEAS_SCAN_AXIS_X_INTERNAL "TwoThetaTheta"
*MEAS_SCAN_END_TIME "06/03/2024 12:48:44"
*MEAS_SCAN_MODE "CONTINUOUS"
*MEAS_SCAN_MODE_INTERNAL "TDI_1D"
*MEAS_SCAN_RESOLUTION_X "0.0025"
*MEAS_SCAN_SPEED "10.0000"
*MEAS_SCAN_SPEED_UNIT "deg/min"
*MEAS_SCAN_START "5.0000"
*MEAS_SCAN_START_TIME "06/03/2024 12:40:28"
*MEAS_SCAN_STEP "0.0200"
*MEAS_SCAN_STOP "80.0000"
*MEAS_SCAN_UNEQUALY_SPACED "False"
*MEAS_SCAN_UNIT_X "deg"
*MEAS_SCAN_UNIT_Y "cps"
#Intensity_unit=cps
#Attenuator_coefficient=1.0000
5.0000 2041.6675
5.0200 2041.6675
5.0400 2041.6675
5.0600 2071.5375
5.0800 2176.3000
5.1000 2135.9250
5.1200 2136.1450
5.1400 2356.2325
5.1600 2379.9800
5.1800 2139.4200
5.2000 2128.2325
5.2200 2222.7400
5.2400 2195.7000
5.2600 2225.7600
5.2800 2171.9725
5.3000 2150.9725
5.3200 2017.7025
5.3400 2051.4525
5.3600 1998.8975
5.3800 2190.2525
5.4000 2049.6650
5.4200 2226.2350
5.4400 2182.2475
5.4600 2164.6225
5.4800 2295.4675
5.5000 2117.8900
5.5200 2109.4500
5.5400 2185.6750
5.5600 2212.5425
5.5800 2152.4225
5.6000 2069.7225
5.6200 2029.6000
5.6400 2272.0625
5.6600 2187.5200
5.6800 2122.0475
5.7000 2064.2725
5.7200 2141.6500
5.7400 2208.3425
5.7600 2111.3100
5.7800 2088.0950
5.8000 2069.6400
5.8200 2094.6750
5.8400 2281.5700
5.8600 2355.9400
5.8800 2295.2075
5.9000 2223.8225
5.9200 2266.1025
5.9400 2298.1600
5.9600 2196.4200
5.9800 2170.8025
6.0000 2130.3700
6.0200 2192.9750
6.0400 2385.8175
6.0600 2482.6350
6.0800 2363.7075
6.1000 2365.4175
6.1200 2305.3750
6.1400 2276.6200
6.1600 2144.8000
6.1800 2335.2150
6.2000 2392.1100
6.2200 2216.5725
6.2400 2132.1700
6.2600 2179.8450
6.2800 2304.9400
6.3000 2405.0875
6.3200 2216.3275
6.3400 2479.8450
6.3600 2475.8725
6.3800 2194.7175
6.4000 2279.2150
6.4200 2325.0000
6.4400 2359.0550
6.4600 2415.2275
6.4800 2166.6675
6.5000 2245.5125
6.5200 2524.3750
6.5400 2463.0000
6.5600 2349.3750
6.5800 2288.0075
6.6000 2247.8075
6.6200 2463.6350
6.6400 2379.1325
6.6600 2327.9625
6.6800 2324.4425
6.7000 2420.9150
6.7200 2493.9200
6.7400 2328.1000
6.7600 2560.0825
6.7800 2478.5750
6.8000 2472.0025
6.8200 2351.7425
6.8400 2241.1150
6.8600 2429.7400
6.8800 2277.9825
6.9000 2445.2375
6.9200 2479.7525
6.9400 2527.9975
6.9600 2384.5575
6.9800 2275.5825
7.0000 2326.1600
7.0200 2413.0525
7.0400 2504.1375
7.0600 2491.2300
7.0800 2296.3625
7.1000 2392.7950
7.1200 2456.5550
7.1400 2441.1075
7.1600 2429.6650
7.1800 2511.8875
7.2000 2526.7750
7.2200 2529.7825
7.2400 2481.1750
7.2600 2357.0950
7.2800 2415.2475
7.3000 2517.3850
7.3200 2467.1900
7.3400 2418.5600
7.3600 2134.3625
7.3800 2268.9775
7.4000 2500.2525
7.4200 2383.5975
7.4400 2339.3450
7.4600 2514.9025
7.4800 2501.2775
7.5000 2499.6800
7.5200 2574.0475
7.5400 2517.1375
7.5600 2500.7250
7.5800 2346.5675
7.6000 2424.9375
7.6200 2315.8100
7.6400 2392.5550
7.6600 2467.1050
7.6800 2521.0400
7.7000 2617.5200
7.7200 2637.8100
7.7400 2475.4150
7.7600 2489.1000
7.7800 2409.6775
7.8000 2432.2225
7.8200 2621.9000
7.8400 2625.9750
7.8600 2554.4700
7.8800 2515.2975
7.9000 2506.8750
7.9200 2404.5500
7.9400 2523.6150
7.9600 2572.5625
7.9800 2621.9150
8.0000 2486.8000
8.0200 2470.5675
8.0400 2432.7200
8.0600 2690.7400
8.0800 2564.0350
8.1000 2496.2950
8.1200 2691.6650
8.1400 2867.8300
8.1600 2734.3300
8.1800 2489.5475
8.2000 2638.2300
8.2200 2630.1500
8.2400 2670.5775
8.2600 2756.8525
8.2800 2769.6425
8.3000 2720.0875
8.3200 2741.8750
8.3400 2752.8150
8.3600 2699.0575
8.3800 2782.4225
8.4000 2640.4850
8.4200 2752.0300
8.4400 2819.9075
8.4600 2750.8125
8.4800 2565.1100
8.5000 2598.4375
8.5200 2626.6900
8.5400 2609.6875
8.5600 2530.1625
8.5800 2546.2600
8.6000 2469.0150
8.6200 2697.9500
8.6400 2525.0000
8.6600 2622.3000
8.6800 2926.2275
8.7000 2598.3275
8.7200 2579.9650
8.7400 2541.6825
8.7600 2590.0100
8.7800 2625.0150
8.8000 2549.9550
8.8200 2620.0900
8.8400 2488.3825
8.8600 2468.1850
8.8800 2535.2725
8.9000 2414.6775
8.9200 2588.2100
8.9400 2659.8050
8.9600 2685.5750
8.9800 2509.7575
9.0000 2622.7525
9.0200 2768.5700
9.0400 2665.7450
9.0600 2535.8325
9.0800 2692.1625
9.1000 2576.9850
9.1200 2531.3275
9.1400 2580.2800
9.1600 2604.8075
9.1800 2838.3625
9.2000 2664.3200
9.2200 2938.5400
9.2400 2705.9425
9.2600 2772.5850
9.2800 2696.9775
9.3000 2859.9400
9.3200 2911.6175
9.3400 3010.2375
9.3600 2655.7400
9.3800 2713.2475
9.4000 2563.1200
9.4200 2584.9275
9.4400 2602.8000
9.4600 2680.1700
9.4800 2822.6025
9.5000 2832.6850
9.5200 2651.4300
9.5400 2814.1975
9.5600 2859.2500
9.5800 2794.8125
9.6000 2806.7625
9.6200 2778.0625
9.6400 2675.5125
9.6600 2691.6400
9.6800 2903.6575
9.7000 2853.7650
9.7200 2721.8925
9.7400 2751.7550
9.7600 2946.3100
9.7800 2948.1225
9.8000 2885.1750
9.8200 2966.6675
9.8400 2923.6350
9.8600 2702.6525
9.8800 2615.6625
9.9000 2807.3525
9.9200 2761.8350
9.9400 3024.7575
9.9600 2827.3525
9.9800 2924.2175
10.0000 2806.8200
10.0200 2765.2525
10.0400 2629.4425
10.0600 2744.5625
10.0800 2851.3550
10.1000 2964.8100
10.1200 3109.8300
10.1400 3079.3475
10.1600 2933.6575
10.1800 2981.6150
10.2000 2680.0200
10.2200 2792.0025
10.2400 2995.4525
10.2600 2842.1175
10.2800 2759.3100
10.3000 2717.6600
10.3200 2697.9800
10.3400 2797.3600
10.3600 2967.9175
10.3800 3040.7350
10.4000 2810.1625
10.4200 2872.8200
10.4400 2946.0025
10.4600 2949.3600
10.4800 2859.4725
10.5000 2802.0300
10.5200 2718.8800
10.5400 2868.5775
10.5600 2945.5025
10.5800 2894.7125
10.6000 2967.0275
10.6200 3054.2475
10.6400 3084.8850
10.6600 3116.4275
10.6800 3033.3325
10.7000 3073.9875
10.7200 3233.0475
10.7400 2999.8900
10.7600 2926.4850
10.7800 3158.3500
10.8000 3020.8725
10.8200 3009.4275
10.8400 3265.2900
10.8600 3244.5950
10.8800 3187.3325
10.9000 3248.6325
10.9200 3253.9350
10.9400 3307.1500
10.9600 3251.5550
10.9800 3193.6775
11.0000 3135.6875
11.0200 3416.3750
11.0400 3202.7700
11.0600 3038.7900
11.0800 3216.3225
11.1000 3036.7775
11.1200 2818.1950
11.1400 2980.8200
11.1600 3048.5600
11.1800 2867.0625
11.2000 3354.4000
11.2200 3273.1825
11.2400 2969.5575
11.2600 3082.8000
11.2800 3106.8550
11.3000 2997.9950
11.3200 2959.7050
11.3400 3121.2775
11.3600 3434.6500
11.3800 3214.9225
11.4000 2985.1825
11.4200 3046.7425
11.4400 3053.4950
11.4600 2915.6800
11.4800 2856.8925
11.5000 3099.6225
11.5200 3146.7000
11.5400 2887.9325
11.5600 2903.8975
11.5800 3089.4525
11.6000 2955.5250
11.6200 3082.1050
11.6400 3046.8300
11.6600 2869.9050
11.6800 2842.7625
11.7000 3152.5800
11.7200 3223.9175
11.7400 3240.1750
11.7600 3083.3325
11.7800 3068.9825
11.8000 3000.0175
11.8200 3075.0625
11.8400 2955.7650
11.8600 3133.4125
11.8800 3065.7125
11.9000 2955.9925
11.9200 2960.3275
11.9400 3080.8100
11.9600 3109.7200
11.9800 3111.6500
12.0000 3359.4925
12.0200 3149.1750
12.0400 3095.0875
12.0600 3100.7625
12.0800 3002.2625
12.1000 3015.5400
12.1200 2989.2425
12.1400 2877.8525
12.1600 2970.0550
12.1800 3085.5750
12.2000 2972.8775
12.2200 2851.1000
12.2400 2866.0075
12.2600 2945.0550
12.2800 3117.0225
12.3000 2998.5875
12.3200 2932.2550
12.3400 2933.5900
12.3600 3001.2900
12.3800 3074.1200
12.4000 3135.6000
12.4200 3179.8350
12.4400 3010.6575
12.4600 3158.1475
12.4800 2873.9575
12.5000 2930.1850
12.5200 2979.0550
12.5400 3062.5550
12.5600 3066.0725
12.5800 3267.4125
12.6000 2977.5800
12.6200 2639.5750
12.6400 3051.0900
12.6600 2654.3225
12.6800 2822.2600
12.7000 2934.9000
12.7200 3042.8175
12.7400 3259.8000
12.7600 2973.9450
12.7800 3085.8425
12.8000 3038.7675
12.8200 3022.4350
12.8400 3064.7550
12.8600 3064.2725
12.8800 3170.2675
12.9000 3118.2650
12.9200 2980.3250
12.9400 2862.2775
12.9600 3108.2725
12.9800 2746.1400
13.0000 3046.3325
13.0200 3023.9650
13.0400 3067.9100
13.0600 2950.6900
13.0800 3011.5400
13.1000 2898.2150
13.1200 2903.7400
13.1400 3082.0575
13.1600 3135.5275
13.1800 3086.8225
13.2000 3121.0025
13.2200 3152.3000
13.2400 3123.1350
13.2600 3307.1125
13.2800 3127.9875
13.3000 2945.1150
13.3200 3040.8000
13.3400 2999.0650
13.3600 3327.0125
13.3800 3004.4300
13.4000 3312.4750
13.4200 2989.3625
13.4400 3194.3625
13.4600 3134.4650
13.4800 3069.0525
13.5000 3107.4600
13.5200 3258.3325
13.5400 3273.9150
13.5600 3402.5575
13.5800 3172.5725
13.6000 3105.5925
13.6200 3462.8650
13.6400 3185.5375
13.6600 3297.6450
13.6800 3333.8500
13.7000 3078.1775
13.7200 3053.5175
13.7400 3354.3550
13.7600 3405.7625
13.7800 3451.6525
13.8000 3278.1850
13.8200 3112.9125
13.8400 2918.9175
13.8600 3202.8025
13.8800 3048.6250
13.9000 3048.3450
13.9200 3207.8675
13.9400 3115.0475
13.9600 3192.9975
13.9800 3215.5975
14.0000 3300.6550
14.0200 3297.2975
14.0400 3162.1600
14.0600 3124.9250
14.0800 3320.5725
14.1000 3264.1600
14.1200 3243.2750
14.1400 3356.8150
14.1600 3231.5025
14.1800 3217.4000
14.2000 3343.5125
14.2200 3465.5100
14.2400 3338.1425
14.2600 3287.0125
14.2800 3226.7275
14.3000 3252.2825
14.3200 3299.7100
14.3400 3514.9375
14.3600 3358.4025
14.3800 3146.3525
14.4000 3455.9600
14.4200 3541.6675
14.4400 3531.0625
14.4600 3348.2550
14.4800 2971.2625
14.5000 3285.5125
14.5200 3180.5125
14.5400 3015.8500
14.5600 3142.2475
14.5800 3271.5875
14.6000 3078.4975
14.6200 3010.0325
14.6400 3183.9650
14.6600 3346.3775
14.6800 3550.5675
14.7000 3274.5450
14.7200 3259.4975
14.7400 3157.6525
14.7600 3577.7075
14.7800 3342.6400
14.8000 3646.3000
14.8200 3272.5225
14.8400 3396.1150
14.8600 3619.7275
14.8800 3196.8700
14.9000 3312.2225
14.9200 3551.7350
14.9400 3423.5450
14.9600 3561.0250
14.9800 3446.1075
15.0000 3526.7450
15.0200 3208.9450
15.0400 3399.1875
15.0600 3207.5650
15.0800 3557.6850
15.1000 3152.6675
15.1200 3224.1925
15.1400 3408.0125
15.1600 3402.8350
15.1800 3478.7050
15.2000 3570.1600
15.2200 3441.0750
15.2400 3424.1300
15.2600 3406.8150
15.2800 3595.8350
15.3000 3479.6150
15.3200 3612.1575
15.3400 3475.5175
15.3600 3482.3175
15.3800 3195.1600
15.4000 3578.5325
15.4200 3418.0700
15.4400 3467.1225
15.4600 3474.9300
15.4800 3169.2450
15.5000 3269.1675
15.5200 3367.2725
15.5400 3392.0575
15.5600 3412.3100
15.5800 3578.0275
15.6000 3344.1400
15.6200 3464.2900
15.6400 3757.3700
15.6600 4116.9750
15.6800 3693.9625
15.7000 3370.4225
15.7200 3582.7800
15.7400 3553.9475
15.7600 3797.2475
15.7800 3618.2075
15.8000 3726.2325
15.8200 3817.6175
15.8400 3887.9000
15.8600 3576.1100
15.8800 3673.1075
15.9000 3491.1100
15.9200 3433.6250
15.9400 3468.0600
15.9600 3642.2050
15.9800 3715.1225
16.0000 3476.9125
16.0200 3816.8675
16.0400 3856.6625
16.0600 3442.7925
16.0800 3791.2225
16.1000 3608.7925
16.1200 3891.5700
16.1400 3774.9975
16.1600 3716.7125
16.1800 3991.2325
16.2000 3609.2450
16.2200 3674.7875
16.2400 3650.1000
16.2600 3492.4250
16.2800 3872.8525
16.3000 3833.6000
16.3200 3965.7050
16.3400 3776.5400
16.3600 3857.5975
16.3800 3833.5750
16.4000 3742.6275
16.4200 3659.2750
16.4400 3839.4475
16.4600 3866.3425
16.4800 3768.0400
16.5000 3996.6025
16.5200 3893.3325
16.5400 3678.5100
16.5600 3806.0625
16.5800 3644.6425
16.6000 3837.9325
16.6200 3539.3475
16.6400 3859.8900
16.6600 3940.0800
16.6800 4031.3175
16.7000 4074.0500
16.7200 4205.1800
16.7400 3777.4825
16.7600 4042.8250
16.7800 3806.5400
16.8000 3848.6500
16.8200 4093.0425
16.8400 3792.4125
16.8600 3791.4200
16.8800 3791.6675
16.9000 3977.3550
16.9200 4096.2625
16.9400 4237.0075
16.9600 3919.5750
16.9800 3675.0225
17.0000 3730.9725
17.0200 3958.2050
17.0400 3878.4025
17.0600 4011.2875
17.0800 3848.4600
17.1000 3673.6100
17.1200 4066.4475
17.1400 4235.1150
17.1600 4066.0775
17.1800 3962.6425
17.2000 4006.1350
17.2200 4175.4900
17.2400 4103.8075
17.2600 4100.0000
17.2800 4139.6925
17.3000 4109.9425
17.3200 4353.9750
17.3400 4200.4150
17.3600 4160.0275
17.3800 4126.7250
17.4000 4385.5350
17.4200 4439.4400
17.4400 4126.4450
17.4600 3990.2350
17.4800 4195.7150
17.5000 4161.1800
17.5200 4071.9675
17.5400 4380.4300
17.5600 4454.8575
17.5800 4098.1775
17.6000 4450.4625
17.6200 4357.7775
17.6400 4287.5400
17.6600 4314.5350
17.6800 4269.9100
17.7000 4694.8625
17.7200 4211.6525
17.7400 4345.9525
17.7600 4397.1500
17.7800 4089.7675
17.8000 4578.0625
17.8200 4632.1475
17.8400 4409.0600
17.8600 4584.8200
17.8800 4646.3125
17.9000 4441.7975
17.9200 4425.0000
17.9400 4155.6300
17.9600 4079.5125
17.9800 4359.2100
18.0000 4298.9200
18.0200 4176.6725
18.0400 4273.8900
18.0600 4313.9375
18.0800 4293.7350
18.1000 4658.2075
18.1200 4409.4050
18.1400 4406.1975
18.1600 4415.9475
18.1800 4477.5150
18.2000 4392.1525
18.2200 4641.4225
18.2400 4325.4200
18.2600 4314.3925
18.2800 4324.2350
18.3000 4612.2975
18.3200 4573.6900
18.3400 4702.4800
18.3600 4935.2550
18.3800 4860.4450
18.4000 4519.0200
18.4200 4400.6725
18.4400 4339.1175
18.4600 4708.2950
18.4800 4922.3050
18.5000 4866.8275
18.5200 4723.7625
18.5400 4499.2175
18.5600 4952.4875
18.5800 4807.1025
18.6000 4932.2400
18.6200 5031.8125
18.6400 4878.2125
18.6600 4613.4075
18.6800 4679.7175
18.7000 4928.6750
18.7200 4950.9350
18.7400 4950.0000
18.7600 4772.8050
18.7800 4779.5025
18.8000 4901.2125
18.8200 4813.6300
18.8400 4902.9250
18.8600 4615.5600
18.8800 4560.3275
18.9000 4800.1700
18.9200 4635.6800
18.9400 4776.5250
18.9600 4800.0000
18.9800 4690.5475
19.0000 4675.0000
19.0200 4871.5900
19.0400 4958.1850
19.0600 5017.5225
19.0800 4930.6550
19.1000 4873.1700
19.1200 4939.0825
19.1400 4732.9925
19.1600 4866.1900
19.1800 5165.9400
19.2000 5100.1875
19.2200 4989.7100
19.2400 5003.7750
19.2600 4864.6175
19.2800 4927.8000
19.3000 5070.7225
19.3200 5048.6950
19.3400 5191.8975
19.3600 5080.8975
19.3800 5115.4350
19.4000 5153.5200
19.4200 4966.0475
19.4400 5011.5825
19.4600 4961.0500
19.4800 5070.6575
19.5000 4935.6975
19.5200 4943.7400
19.5400 5105.6125
19.5600 5147.4650
19.5800 5100.6000
19.6000 5141.0100
19.6200 5424.5975
19.6400 5158.5225
19.6600 5114.0500
19.6800 5074.5675
19.7000 5080.6825
19.7200 5027.3300
19.7400 5191.4700
19.7600 5099.2875
19.7800 5068.0250
19.8000 4976.0875
19.8200 5007.0500
19.8400 5204.3525
19.8600 5123.6350
19.8800 5252.5675
19.9000 5317.9675
19.9200 4847.6225
19.9400 4929.6675
19.9600 5194.4350
19.9800 5255.4550
20.0000 5382.2750
20.0200 5367.0700
20.0400 5289.6425
20.0600 4959.4025
20.0800 5042.4225
20.1000 5396.6825
20.1200 5418.8150
20.1400 5101.0850
20.1600 5237.9175
20.1800 5528.5350
20.2000 5290.8100
20.2200 5456.0150
20.2400 5277.6025
20.2600 5428.3375
20.2800 5447.9225
20.3000 5556.6075
20.3200 5495.5450
20.3400 5178.2400
20.3600 5579.8675
20.3800 5328.3625
20.4000 5261.8250
20.4200 5461.2875
20.4400 5528.4425
20.4600 5359.2800
20.4800 5189.6350
20.5000 5565.6625
20.5200 5893.4175
20.5400 5670.2500
20.5600 5440.3450
20.5800 5625.8925
20.6000 5729.7825
20.6200 5529.6025
20.6400 5534.5675
20.6600 5655.7625
20.6800 5696.5375
20.7000 5291.2200
20.7200 5255.7650
20.7400 5518.3225
20.7600 5885.4525
20.7800 5809.2425
20.8000 5517.7350
20.8200 5430.3725
20.8400 5588.3450
20.8600 5574.6050
20.8800 5949.3425
20.9000 5661.3275
20.9200 5550.0000
20.9400 5647.3675
20.9600 5487.0025
20.9800 5737.6175
21.0000 5734.4825
21.0200 5792.2750
21.0400 5913.3950
21.0600 5748.4700
21.0800 5505.1575
21.1000 5546.3425
21.1200 5812.3250
21.1400 6094.7175
21.1600 5678.5600
21.1800 5616.3825
21.2000 5801.1625
21.2200 5907.3400
21.2400 5861.3750
21.2600 5930.6225
21.2800 5837.7725
21.3000 6021.7825
21.3200 6154.9475
21.3400 5783.1975
21.3600 5872.8975
21.3800 5639.1675
21.4000 5850.0425
21.4200 5836.8750
21.4400 5988.2825
21.4600 5974.7925
21.4800 5893.6725
21.5000 6031.2500
21.5200 5927.3000
21.5400 5931.0925
21.5600 5974.8950
21.5800 5908.7500
21.6000 5995.0500
21.6200 6058.1250
21.6400 5800.5400
21.6600 5949.3650
21.6800 5879.0450
21.7000 5868.1400
21.7200 6067.9550
21.7400 6127.1875
21.7600 6106.5900
21.7800 5695.5675
21.8000 6063.9950
21.8200 6170.5675
21.8400 6044.0425
21.8600 6160.6500
21.8800 6295.7575
21.9000 6422.2000
21.9200 6494.7300
21.9400 6338.7250
21.9600 6650.0150
21.9800 6260.1625
22.0000 6118.6425
22.0200 6388.5750
22.0400 5942.1325
22.0600 5835.4100
22.0800 5922.9650
22.1000 6157.1925
22.1200 6325.3575
22.1400 6018.0950
22.1600 5907.1750
22.1800 6124.9650
22.2000 6065.7125
22.2200 5943.0625
22.2400 6254.3775
22.2600 6131.3700
22.2800 6160.8600
22.3000 5951.2525
22.3200 5924.1150
22.3400 6217.0650
22.3600 6489.3975
22.3800 6587.6450
22.4000 6453.6625
22.4200 6222.1725
22.4400 6056.6300
22.4600 5818.5575
22.4800 5890.4125
22.5000 6138.4075
22.5200 6321.0650
22.5400 6100.2825
22.5600 6151.0100
22.5800 6450.1475
22.6000 6699.8650
22.6200 6570.9925
22.6400 6178.7900
22.6600 5932.6600
22.6800 5889.0625
22.7000 6120.4325
22.7200 6282.1025
22.7400 6131.5975
22.7600 6249.2250
22.7800 6534.8950
22.8000 6341.2925
22.8200 6230.9950
22.8400 6269.9475
22.8600 6373.6875
22.8800 6518.1525
22.9000 6257.0700
22.9200 6068.9925
22.9400 6280.0475
22.9600 6363.6575
22.9800 6327.6275
23.0000 6495.3475
23.0200 6549.8850
23.0400 6366.3625
23.0600 6194.4275
23.0800 6161.0950
23.1000 6332.8200
23.1200 6377.9600
23.1400 6474.2600
23.1600 6461.6875
23.1800 6276.4425
23.2000 6304.3675
23.2200 6374.7850
23.2400 6547.5775
23.2600 6463.8975
23.2800 6402.2825
23.3000 6264.1375
23.3200 6281.2225
23.3400 6387.6250
23.3600 6275.7450
23.3800 6227.0550
23.4000 6166.0425
23.4200 6200.4975
23.4400 6037.0925
23.4600 6123.8500
23.4800 6490.8625
23.5000 6713.6750
23.5200 6731.6000
23.5400 6423.0925
23.5600 6258.3325
23.5800 6332.8050
23.6000 6422.7925
23.6200 6487.1075
23.6400 6402.4975
23.6600 6294.1225
23.6800 6372.1350
23.7000 6670.2250
23.7200 6556.0900
23.7400 6565.7100
23.7600 6642.6225
23.7800 6654.2425
23.8000 6635.3575
23.8200 6908.3725
23.8400 6890.9400
23.8600 6930.7175
23.8800 7004.2750
23.9000 7033.0425
23.9200 7414.5725
23.9400 7416.8800
23.9600 7504.5425
23.9800 7153.8275
24.0000 7213.9375
24.0200 7487.7175
24.0400 7327.6925
24.0600 7295.0025
24.0800 7263.4900
24.1000 7152.4575
24.1200 6959.4875
24.1400 6782.4175
24.1600 6728.2825
24.1800 6866.1900
24.2000 6933.1675
24.2200 6901.5950
24.2400 6686.0675
24.2600 6499.9475
24.2800 6331.7725
24.3000 6311.4800
24.3200 6452.9050
24.3400 6616.0300
24.3600 6410.5975
24.3800 6130.9600
24.4000 6051.8450
24.4200 6406.5525
24.4400 6500.8425
24.4600 6303.2475
24.4800 6065.1625
24.5000 6342.9400
24.5200 6380.7875
24.5400 6330.2050
24.5600 6431.2625
24.5800 6524.2225
24.6000 6442.7750
24.6200 6390.0425
24.6400 6647.0950
24.6600 6552.9350
24.6800 6438.8075
24.7000 6366.8650
24.7200 6207.9300
24.7400 6316.1175
24.7600 6385.6125
24.7800 6502.4050
24.8000 6569.1350
24.8200 6500.1275
24.8400 6347.1700
24.8600 6169.6725
24.8800 6084.7550
24.9000 6160.7925
24.9200 6402.4225
24.9400 6383.3325
24.9600 6210.5300
24.9800 6465.4650
25.0000 6536.9225
25.0200 6422.2825
25.0400 6493.6600
25.0600 6365.6850
25.0800 6201.8925
25.1000 6432.3950
25.1200 6651.7450
25.1400 6487.5225
25.1600 6291.2425
25.1800 6336.9175
25.2000 6065.9475
25.2200 5865.3375
25.2400 6137.9150
25.2600 6439.9025
25.2800 6581.6925
25.3000 6395.9900
25.3200 6131.0050
25.3400 6076.3300
25.3600 6289.2100
25.3800 6238.8050
25.4000 6407.6575
25.4200 6654.2100
25.4400 6364.0550
25.4600 6184.9875
25.4800 6128.5425
25.5000 6005.2525
25.5200 6201.1000
25.5400 6346.1950
25.5600 6129.5075
25.5800 6101.3050
25.6000 6226.2575
25.6200 6551.2925
25.6400 6772.7150
25.6600 6564.1375
25.6800 6620.5575
25.7000 6674.1450
25.7200 6515.4475
25.7400 6647.1000
25.7600 6761.2975
25.7800 6815.1050
25.8000 6797.2525
25.8200 6648.7400
25.8400 6672.4575
25.8600 6588.5725
25.8800 6704.7425
25.9000 7009.1375
25.9200 6897.8175
25.9400 6847.0325
25.9600 7004.6650
25.9800 7007.9875
26.0000 7146.7050
26.0200 7404.3350
26.0400 7500.0025
26.0600 7487.5825
26.0800 7723.7650
26.1000 8128.2925
26.1200 8621.6775
26.1400 9366.5300
26.1600 9770.5500
26.1800 10197.5975
26.2000 10571.6675
26.2200 10920.8800
26.2400 11276.3300
26.2600 11691.9375
26.2800 12645.5600
26.3000 13193.7325
26.3200 13258.6000
26.3400 13165.4975
26.3600 12886.3225
26.3800 12863.5525
26.4000 12510.9750
26.4200 11605.7775
26.4400 10873.0225
26.4600 10386.1325
26.4800 9727.4800
26.5000 8865.3425
26.5200 8547.1550
26.5400 8339.5275
26.5600 7840.9550
26.5800 7588.1600
26.6000 7701.9725
26.6200 7347.1425
26.6400 7108.7800
26.6600 7019.5700
26.6800 7054.6550
26.7000 6995.0750
26.7200 6646.1575
26.7400 6714.4875
26.7600 6754.1225
26.7800 6547.4600
26.8000 6290.5875
26.8200 6260.7100
26.8400 6280.3475
26.8600 6314.8225
26.8800 6478.5200
26.9000 6375.5800
26.9200 6306.9650
26.9400 6376.1225
26.9600 6275.0000
26.9800 6315.8950
27.0000 6248.0100
27.0200 6066.7150
27.0400 6091.4000
27.0600 6175.0000
27.0800 6127.2950
27.1000 6070.3275
27.1200 6009.2925
27.1400 5972.3300
27.1600 5953.4450
27.1800 5857.2425
27.2000 5837.7700
27.2200 5915.2775
27.2400 6081.0375
27.2600 6096.4175
27.2800 6113.1075
27.3000 6002.6700
27.3200 5774.0125
27.3400 5745.0250
27.3600 5790.4025
27.3800 5750.6425
27.4000 5722.0100
27.4200 5792.5325
27.4400 5869.1175
27.4600 6011.4100
27.4800 6087.4675
27.5000 5971.6350
27.5200 5946.8325
27.5400 6055.7450
27.5600 6006.3500
27.5800 5861.3500
27.6000 5781.0125
27.6200 5895.8225
27.6400 5896.0750
27.6600 5975.0000
27.6800 5954.7125
27.7000 5847.4525
27.7200 5824.1100
27.7400 5767.2450
27.7600 5546.8475
27.7800 5628.3350
27.8000 5874.2175
27.8200 6059.5950
27.8400 5815.9400
27.8600 5829.6475
27.8800 5582.7775
27.9000 5679.5700
27.9200 5972.4100
27.9400 6027.3775
27.9600 6096.1100
27.9800 5884.7800
28.0000 5737.3325
28.0200 5763.3600
28.0400 5948.0450
28.0600 5811.7075
28.0800 5769.4300
28.1000 5854.2875
28.1200 5719.1250
28.1400 5575.3100
28.1600 5576.9250
28.1800 5736.3500
28.2000 5537.1900
28.2200 5410.2475
28.2400 5612.6600
28.2600 5667.8775
28.2800 5746.0625
28.3000 5757.4625
28.3200 5992.8525
28.3400 5690.0775
28.3600 5579.7100
28.3800 5634.9325
28.4000 5763.7750
28.4200 5766.9575
28.4400 5490.0775
28.4600 5612.8500
28.4800 5714.4225
28.5000 5531.9375
28.5200 5588.7250
28.5400 5788.3825
28.5600 5649.2000
28.5800 5705.3850
28.6000 5758.7650
28.6200 5761.2350
28.6400 5645.4800
28.6600 5666.5625
28.6800 5497.1275
28.7000 5639.7875
28.7200 5660.2900
28.7400 5608.0550
28.7600 5600.2500
28.7800 5659.4400
28.8000 5659.2500
28.8200 5483.0050
28.8400 5455.6450
28.8600 5598.8825
28.8800 5709.7500
28.9000 5520.0400
28.9200 5705.5100
28.9400 5683.3150
28.9600 5567.3575
28.9800 5503.6250
29.0000 5837.8100
29.0200 5541.6675
29.0400 5637.0925
29.0600 5678.4725
29.0800 5472.0375
29.1000 5673.2650
29.1200 5562.3675
29.1400 5577.0750
29.1600 5737.6375
29.1800 5570.5825
29.2000 5423.0750
29.2200 5463.4550
29.2400 5527.1125
29.2600 5746.5900
29.2800 5591.9950
29.3000 5679.3675
29.3200 5359.9700
29.3400 5496.9475
29.3600 5344.2400
29.3800 5339.7475
29.4000 5360.0725
29.4200 5402.3725
29.4400 5414.3750
29.4600 5657.6000
29.4800 5503.4525
29.5000 5447.2850
29.5200 5340.6025
29.5400 5637.5700
29.5600 5647.9550
29.5800 5689.8625
29.6000 5544.5525
29.6200 5440.2675
29.6400 5448.3200
29.6600 5674.3875
29.6800 5399.2050
29.7000 5296.6825
29.7200 5388.3925
29.7400 5526.3525
29.7600 5504.7900
29.7800 5301.8750
29.8000 5455.9650
29.8200 5199.8425
29.8400 5404.7400
29.8600 5231.9975
29.8800 5338.2675
29.9000 5488.0150
29.9200 5354.7475
29.9400 5422.3750
29.9600 5133.4625
29.9800 5256.8725
30.0000 5399.2725
30.0200 5318.6050
30.0400 5393.5300
30.0600 5871.9000
30.0800 5395.3300
30.1000 5128.2900
30.1200 5207.6200
30.1400 5362.9325
30.1600 5566.7475
30.1800 5412.9550
30.2000 5319.1800
30.2200 5267.9200
30.2400 5093.5450
30.2600 5365.1475
30.2800 5541.3025
30.3000 5263.1925
30.3200 5358.1025
30.3400 5331.4625
30.3600 5410.4650
30.3800 5374.9950
30.4000 5220.6275
30.4200 5321.1750
30.4400 5169.2900
30.4600 5105.2225
30.4800 5254.6425
30.5000 5215.9800
30.5200 5305.7825
30.5400 5358.0275
30.5600 5407.3050
30.5800 5467.4300
30.6000 5347.4200
30.6200 5154.5350
30.6400 5210.8125
30.6600 5026.7875
30.6800 4894.0575
30.7000 5066.6675
30.7200 5124.3050
30.7400 5287.9900
30.7600 5214.4925
30.7800 5250.0275
30.8000 5106.4500
30.8200 5152.4625
30.8400 5458.2325
30.8600 5730.3125
30.8800 5198.0350
30.9000 5256.9350
30.9200 5031.1725
30.9400 4969.4650
30.9600 5337.2475
30.9800 5398.5250
31.0000 5227.3625
31.0200 5082.5125
31.0400 4808.8925
31.0600 5081.2075
31.0800 5156.1650
31.1000 5069.6700
31.1200 4895.1300
31.1400 5001.3025
31.1600 5271.0125
31.1800 4950.3600
31.2000 5047.1450
31.2200 5132.9925
31.2400 4974.8850
31.2600 4909.9600
31.2800 5066.5525
31.3000 5121.8125
31.3200 5099.5450
31.3400 5245.5550
31.3600 5375.1050
31.3800 5138.1575
31.4000 5115.1725
31.4200 4899.9625
31.4400 4791.5050
31.4600 4955.3150
31.4800 5060.9250
31.5000 5052.4875
31.5200 4833.0025
31.5400 4935.5375
31.5600 4900.7175
31.5800 4868.1800
31.6000 4894.5525
31.6200 5052.0875
31.6400 5311.7125
31.6600 5024.3900
31.6800 4853.4700
31.7000 4822.2625
31.7200 4971.0100
31.7400 4955.7125
31.7600 4789.0475
31.7800 4843.6350
31.8000 4990.5100
31.8200 5035.8550
31.8400 4873.5950
31.8600 4834.6725
31.8800 4929.9925
31.9000 5127.1425
31.9200 4866.7975
31.9400 4600.2700
31.9600 4811.0400
31.9800 4994.6975
32.0000 4985.0900
32.0200 5087.2525
32.0400 5051.2550
32.0600 4784.1675
32.0800 5025.6175
32.1000 5035.6550
32.1200 4811.6275
32.1400 4842.1050
32.1600 5168.7950
32.1800 5081.6000
32.2000 4776.0000
32.2200 4682.3850
32.2400 4484.4425
32.2600 5085.7225
32.2800 5090.5200
32.3000 5022.7525
32.3200 4943.1700
32.3400 4867.3550
32.3600 4925.6500
32.3800 4680.4150
32.4000 5040.4300
32.4200 4799.1400
32.4400 5011.6650
32.4600 5012.4125
32.4800 4856.4400
32.5000 4744.1575
32.5200 4808.0800
32.5400 4756.3825
32.5600 4810.5450
32.5800 4867.6525
32.6000 4771.8025
32.6200 4858.4525
32.6400 4800.0000
32.6600 4805.0400
32.6800 4853.6525
32.7000 4959.4800
32.7200 5107.3525
32.7400 5219.1725
32.7600 5203.8550
32.7800 5439.2900
32.8000 5578.3000
32.8200 5791.5925
32.8400 5757.3700
32.8600 6057.8700
32.8800 6473.2400
32.9000 7132.6950
32.9200 7147.1250
32.9400 7922.4200
32.9600 8185.9425
32.9800 8207.4725
33.0000 8200.8500
33.0200 8199.9150
33.0400 8085.0350
33.0600 7768.6400
33.0800 8092.5775
33.1000 7383.3800
33.1200 7089.5200
33.1400 6520.6000
33.1600 6549.0050
33.1800 6436.0550
33.2000 6190.1000
33.2200 5907.0025
33.2400 5745.7400
33.2600 5912.2475
33.2800 5417.4425
33.3000 5185.1000
33.3200 4531.0925
33.3400 4949.9950
33.3600 4856.9625
33.3800 4861.9650
33.4000 5066.3050
33.4200 4776.3175
33.4400 4781.2800
33.4600 4637.2125
33.4800 4390.2725
33.5000 4485.5700
33.5200 4586.6450
33.5400 4227.6475
33.5600 4486.2950
33.5800 4641.5275
33.6000 4755.7625
33.6200 4804.9750
33.6400 4433.9675
33.6600 4662.9225
33.6800 4479.7900
33.7000 4318.4175
33.7200 4448.9275
33.7400 4197.6875
33.7600 4416.1625
33.7800 4425.6425
33.8000 4683.0100
33.8200 4404.0450
33.8400 4345.0175
33.8600 4514.6275
33.8800 4052.6950
33.9000 4108.3650
33.9200 4253.1600
33.9400 4152.4225
33.9600 4061.4975
33.9800 4425.9075
34.0000 4121.4075
34.0200 4212.0325
34.0400 4120.4375
34.0600 4208.0975
34.0800 4373.2800
34.1000 4146.1500
34.1200 4064.4725
34.1400 4197.7050
34.1600 3970.4250
34.1800 4668.8825
34.2000 4294.5075
34.2200 4157.4050
34.2400 4350.2900
34.2600 4134.7400
34.2800 4416.1275
34.3000 4393.2300
34.3200 4186.6025
34.3400 4287.5450
34.3600 4152.8025
34.3800 4244.8325
34.4000 4062.0000
34.4200 4195.6575
34.4400 4022.6250
34.4600 3932.3700
34.4800 4252.5200
34.5000 4362.7300
34.5200 4170.7825
34.5400 3962.9350
34.5600 4210.2125
34.5800 4315.3100
34.6000 4229.7850
34.6200 4002.3575
34.6400 4166.4475
34.6600 4150.7000
34.6800 4209.3375
34.7000 4298.4350
34.7200 4140.1225
34.7400 3966.9250
34.7600 3999.2725
34.7800 3892.3725
34.8000 4016.8200
34.8200 4049.7050
34.8400 3966.9125
34.8600 4066.8425
34.8800 4191.6300
34.9000 4091.7375
34.9200 4341.2275
34.9400 3976.0325
34.9600 3891.9900
34.9800 4206.7750
35.0000 4299.4525
35.0200 4167.6025
35.0400 4199.7300
35.0600 4216.5150
35.0800 3936.2175
35.1000 4073.4100
35.1200 4157.3100
35.1400 3878.7775
35.1600 4055.6975
35.1800 4435.7550
35.2000 4335.1175
35.2200 4087.7125
35.2400 3870.6875
35.2600 4030.0650
35.2800 4188.3975
35.3000 4672.6675
35.3200 4406.4425
35.3400 4635.9200
35.3600 4763.5650
35.3800 5213.1450
35.4000 5516.9300
35.4200 5865.2200
35.4400 6125.8450
35.4600 6149.5000
35.4800 6295.3400
35.5000 6316.1325
35.5200 6252.2100
35.5400 6177.5625
35.5600 6134.8000
35.5800 5763.8900
35.6000 5629.6600
35.6200 5320.4625
35.6400 5300.3275
35.6600 4764.2050
35.6800 4741.6675
35.7000 4661.8700
35.7200 4467.0250
35.7400 4307.0425
35.7600 4411.3575
35.7800 4114.7375
35.8000 3996.8200
35.8200 4039.2375
35.8400 4160.4650
35.8600 3913.5050
35.8800 3797.2650
35.9000 3989.0225
35.9200 4078.8575
35.9400 3823.3850
35.9600 3548.6675
35.9800 3894.9025
36.0000 3806.7425
36.0200 3737.2550
36.0400 3788.1775
36.0600 3721.2300
36.0800 3959.0175
36.1000 3756.3400
36.1200 3819.6750
36.1400 3786.0375
36.1600 3689.9250
36.1800 3784.4150
36.2000 3527.5875
36.2200 3570.4025
36.2400 3838.5075
36.2600 3672.5300
36.2800 3472.7325
36.3000 3805.9575
36.3200 3586.4025
36.3400 3797.9125
36.3600 3939.8625
36.3800 3680.8000
36.4000 3919.5575
36.4200 3550.2575
36.4400 3746.6550
36.4600 3896.8525
36.4800 3770.6400
36.5000 3735.4100
36.5200 3595.9400
36.5400 3438.4650
36.5600 3630.6400
36.5800 3376.1125
36.6000 3403.1975
36.6200 3423.5150
36.6400 3637.3250
36.6600 3499.2625
36.6800 3498.4675
36.7000 3651.1650
36.7200 3696.8675
36.7400 3564.2500
36.7600 3474.6650
36.7800 3684.8975
36.8000 3400.1400
36.8200 3727.0825
36.8400 3699.1625
36.8600 3481.8850
36.8800 3465.8175
36.9000 3466.6675
36.9200 3287.4450
36.9400 3154.7750
36.9600 3648.3475
36.9800 3723.2200
37.0000 3405.3025
37.0200 3537.4800
37.0400 3558.3325
37.0600 3439.7675
37.0800 3425.0000
37.1000 3417.6050
37.1200 3379.7375
37.1400 3485.6675
37.1600 3345.2375
37.1800 3361.8075
37.2000 3315.1925
37.2200 3293.6425
37.2400 3401.7250
37.2600 3343.3750
37.2800 3260.1225
37.3000 3440.1375
37.3200 3196.3850
37.3400 3282.3800
37.3600 3336.4450
37.3800 3196.0500
37.4000 3327.7275
37.4200 3197.4400
37.4400 3196.7700
37.4600 3352.2225
37.4800 3295.3525
37.5000 3283.3325
37.5200 3514.5225
37.5400 3297.4175
37.5600 3215.0800
37.5800 3208.3325
37.6000 3280.2600
37.6200 3306.0375
37.6400 3408.8100
37.6600 3245.7775
37.6800 3238.1500
37.7000 3277.4325
37.7200 3397.6550
37.7400 3202.5500
37.7600 3202.3125
37.7800 3144.2400
37.8000 3225.8075
37.8200 3177.7175
37.8400 3195.0575
37.8600 3136.1925
37.8800 3528.6725
37.9000 3423.1475
37.9200 3200.8775
37.9400 3124.3150
37.9600 3236.5275
37.9800 3230.1625
38.0000 3203.8950
38.0200 3256.2175
38.0400 3126.2800
38.0600 3226.2075
38.0800 3313.0350
38.1000 3213.0650
38.1200 3065.8800
38.1400 2902.0575
38.1600 3160.8800
38.1800 3244.5275
38.2000 3076.0700
38.2200 3264.0500
38.2400 3107.0225
38.2600 3073.6000
38.2800 3130.4100
38.3000 3245.4450
38.3200 3266.6675
38.3400 3114.7950
38.3600 3255.7225
38.3800 3381.2100
38.4000 3269.2750
38.4200 3221.0500
38.4400 3148.0175
38.4600 3112.7625
38.4800 3183.6800
38.5000 3261.5775
38.5200 3117.8100
38.5400 2960.4525
38.5600 3124.2700
38.5800 3125.7975
38.6000 3075.8425
38.6200 2985.1100
38.6400 3020.9775
38.6600 3189.3025
38.6800 3509.4975
38.7000 3311.1175
38.7200 3135.1025
38.7400 3155.5925
38.7600 3308.2825
38.7800 3281.0425
38.8000 3132.0950
38.8200 2898.3675
38.8400 3205.8225
38.8600 3117.3075
38.8800 3141.9875
38.9000 3205.1725
38.9200 3089.6750
38.9400 3238.5950
38.9600 3316.6775
38.9800 3105.1725
39.0000 3016.7300
39.0200 2895.3400
39.0400 3132.2350
39.0600 3206.6325
39.0800 3347.4475
39.1000 3198.0550
39.1200 3163.2200
39.1400 3179.8725
39.1600 3249.2825
39.1800 3286.4300
39.2000 3206.1225
39.2200 3334.5125
39.2400 3381.5650
39.2600 3363.6575
39.2800 3207.6600
39.3000 3186.2975
39.3200 3165.5200
39.3400 2903.6950
39.3600 3068.1225
39.3800 3016.0700
39.4000 3146.0175
39.4200 3068.1625
39.4400 3176.1775
39.4600 3326.9250
39.4800 3293.5475
39.5000 3287.9425
39.5200 3142.9925
39.5400 3074.1725
39.5600 3040.8675
39.5800 3123.5300
39.6000 3072.7750
39.6200 3133.5675
39.6400 3344.5450
39.6600 3329.4475
39.6800 2943.1450
39.7000 3236.5150
39.7200 3230.4800
39.7400 3044.8000
39.7600 3255.1375
39.7800 3065.7375
39.8000 3237.9050
39.8200 3036.9500
39.8400 3121.4550
39.8600 3105.2250
39.8800 2950.2750
39.9000 3123.5200
39.9200 3172.7000
39.9400 3318.2275
39.9600 3272.0475
39.9800 2951.8200
40.0000 2896.0975
40.0200 2933.4825
40.0400 3318.4725
40.0600 3303.6575
40.0800 3239.5350
40.1000 3076.8525
40.1200 3075.0175
40.1400 3122.8925
40.1600 3127.0950
40.1800 3218.4750
40.2000 2994.7875
40.2200 3088.6500
40.2400 3323.9075
40.2600 3377.1300
40.2800 3108.5175
40.3000 2973.3350
40.3200 2995.4350
40.3400 3082.4550
40.3600 3120.6725
40.3800 3088.0200
40.4000 3124.2500
40.4200 3061.7225
40.4400 2978.0475
40.4600 3031.9650
40.4800 3150.2725
40.5000 3109.8625
40.5200 3230.1125
40.5400 3246.6800
40.5600 3379.7875
40.5800 3317.5175
40.6000 3445.4900
40.6200 3629.9775
40.6400 3577.7925
40.6600 3669.1125
40.6800 3813.6625
40.7000 3989.2775
40.7200 3823.9075
40.7400 3947.1025
40.7600 3843.9300
40.7800 3986.0150
40.8000 3873.9500
40.8200 3787.9675
40.8400 3675.1675
40.8600 3939.4700
40.8800 3902.4350
40.9000 3530.2100
40.9200 3402.3500
40.9400 3465.7425
40.9600 3479.7275
40.9800 3218.5725
41.0000 3098.7950
41.0200 3252.3275
41.0400 3233.4525
41.0600 3075.3125
41.0800 2983.4825
41.1000 2865.9500
41.1200 2937.4450
41.1400 3243.4475
41.1600 3196.4625
41.1800 3103.8400
41.2000 3121.1300
41.2200 3233.3950
41.2400 3051.5725
41.2600 3058.1800
41.2800 3205.6050
41.3000 3009.7175
41.3200 3189.3350
41.3400 3167.9850
41.3600 3003.1850
41.3800 3034.1925
41.4000 3055.0100
41.4200 3137.3400
41.4400 3041.2225
41.4600 2965.9025
41.4800 2935.1175
41.5000 2977.1775
41.5200 2959.4600
41.5400 3011.0875
41.5600 3301.7175
41.5800 3220.3950
41.6000 3139.1000
41.6200 3107.1050
41.6400 2970.8300
41.6600 3169.5775
41.6800 3157.0125
41.7000 3036.9075
41.7200 2985.4150
41.7400 3083.7450
41.7600 3241.9625
41.7800 3177.4425
41.8000 2925.3225
41.8200 2964.4100
41.8400 3053.4650
41.8600 3117.8475
41.8800 3175.7525
41.9000 3310.8375
41.9200 3219.2800
41.9400 3116.0225
41.9600 3116.9700
41.9800 3017.6375
42.0000 3102.1400
42.0200 3059.5300
42.0400 3081.5600
42.0600 2891.5925
42.0800 2828.3000
42.1000 2917.3800
42.1200 2938.7825
42.1400 3084.6175
42.1600 3091.1675
42.1800 2929.7325
42.2000 2905.7650
42.2200 2986.3750
42.2400 3011.0925
42.2600 3075.1475
42.2800 2869.1650
42.3000 2800.0050
42.3200 3058.1175
42.3400 2992.0275
42.3600 3055.0875
42.3800 3033.7400
42.4000 3060.7150
42.4200 3111.0425
42.4400 3111.1500
42.4600 3091.8025
42.4800 3105.3500
42.5000 3116.6675
42.5200 3050.7525
42.5400 3011.1800
42.5600 3134.4075
42.5800 3068.5800
42.6000 3180.5150
42.6200 2958.0575
42.6400 2895.3850
42.6600 2971.8125
42.6800 3010.5725
42.7000 2943.3700
42.7200 2878.2550
42.7400 2638.5700
42.7600 2739.1050
42.7800 3037.1850
42.8000 3192.8900
42.8200 2981.6100
42.8400 2795.9675
42.8600 2858.4275
42.8800 2913.7250
42.9000 2916.6675
42.9200 3045.8150
42.9400 3014.5275
42.9600 2990.5550
42.9800 2960.0500
43.0000 3035.1625
43.0200 3107.7275
43.0400 2902.7250
43.0600 2906.2250
43.0800 3033.7150
43.1000 2928.0250
43.1200 3116.3525
43.1400 3043.1550
43.1600 2953.8800
43.1800 2916.5800
43.2000 2835.5825
43.2200 2972.6450
43.2400 3087.8475
43.2600 2999.4925
43.2800 3020.9350
43.3000 3145.8575
43.3200 2980.7050
43.3400 2916.2900
43.3600 3050.0075
43.3800 3029.4575
43.4000 2962.3200
43.4200 2939.5050
43.4400 2891.3900
43.4600 2950.4700
43.4800 3109.8825
43.5000 3012.9500
43.5200 2984.5550
43.5400 3019.7825
43.5600 3027.0900
43.5800 2950.0225
43.6000 3045.6525
43.6200 3065.7750
43.6400 3035.3825
43.6600 2963.8650
43.6800 2942.5750
43.7000 3030.8075
43.7200 2935.3650
43.7400 2819.0000
43.7600 2944.5275
43.7800 3084.9000
43.8000 2977.5675
43.8200 2984.3100
43.8400 2990.2475
43.8600 2865.8675
43.8800 2885.3150
43.9000 2841.0450
43.9200 2880.6575
43.9400 2859.7875
43.9600 2823.6700
43.9800 2920.1650
44.0000 2908.6625
44.0200 2876.8625
44.0400 2868.0525
44.0600 2955.0150
44.0800 2955.6625
44.1000 2865.8775
44.1200 2970.3350
44.1400 3048.1950
44.1600 3056.8600
44.1800 2950.2875
44.2000 2960.9375
44.2200 2895.4550
44.2400 2978.1325
44.2600 2977.4700
44.2800 2923.4425
44.3000 3039.0025
44.3200 3173.6875
44.3400 3216.6675
44.3600 3010.9300
44.3800 2885.0275
44.4000 2841.5775
44.4200 2898.4100
44.4400 2873.3400
44.4600 2971.5150
44.4800 2985.1700
44.5000 2939.9575
44.5200 2905.1650
44.5400 2914.8175
44.5600 3061.0075
44.5800 3072.1125
44.6000 2970.4000
44.6200 2898.6200
44.6400 2701.5825
44.6600 2984.3125
44.6800 3124.7925
44.7000 2944.3850
44.7200 2774.7150
44.7400 2783.8575
44.7600 2757.8825
44.7800 2685.2275
44.8000 2807.8350
44.8200 2865.5925
44.8400 2772.9100
44.8600 2710.2800
44.8800 2827.4675
44.9000 2774.6150
44.9200 2665.2125
44.9400 2770.8000
44.9600 2864.6575
44.9800 2923.8150
45.0000 2909.5600
45.0200 2967.5875
45.0400 3125.8425
45.0600 3113.8325
45.0800 3029.1700
45.1000 2916.0625
45.1200 2748.1025
45.1400 2796.2050
45.1600 2830.0475
45.1800 2835.2275
45.2000 2861.8300
45.2200 2737.5350
45.2400 2785.1800
45.2600 2902.6275
45.2800 2955.2250
45.3000 2925.5425
45.3200 2825.5925
45.3400 2884.2975
45.3600 2867.0600
45.3800 2785.6000
45.4000 2736.6325
45.4200 2756.2550
45.4400 2815.6075
45.4600 2818.9800
45.4800 2813.1150
45.5000 2840.5500
45.5200 2910.8325
45.5400 2864.1600
45.5600 2761.8800
45.5800 2661.9150
45.6000 2703.4825
45.6200 2670.4200
45.6400 2686.6650
45.6600 2710.8725
45.6800 2656.0300
45.7000 2689.0525
45.7200 2810.2300
45.7400 2927.0425
45.7600 2848.4775
45.7800 2824.4675
45.8000 2799.4775
45.8200 2765.2500
45.8400 2764.4825
45.8600 2782.9650
45.8800 2718.9250
45.9000 2725.2350
45.9200 2825.6200
45.9400 2844.2475
45.9600 2734.8125
45.9800 2808.3450
46.0000 2934.3675
46.0200 2993.1550
46.0400 2888.3350
46.0600 2723.5875
46.0800 2645.9700
46.1000 2761.3425
46.1200 2926.3000
46.1400 2850.1650
46.1600 2842.1525
46.1800 2782.6950
46.2000 2818.1800
46.2200 2869.2425
46.2400 2876.0750
46.2600 2856.3475
46.2800 2914.9725
46.3000 2935.1350
46.3200 2837.0350
46.3400 2952.6775
46.3600 2871.5725
46.3800 2874.6575
46.4000 2860.5950
46.4200 2797.0300
46.4400 2735.6275
46.4600 2774.3950
46.4800 2801.3350
46.5000 2686.4550
46.5200 2724.4250
46.5400 2796.2600
46.5600 2891.8300
46.5800 2838.1925
46.6000 2825.0375
46.6200 2780.8650
46.6400 2724.5450
46.6600 2740.0300
46.6800 2770.7300
46.7000 2863.1725
46.7200 2848.9625
46.7400 2822.8200
46.7600 2955.6900
46.7800 2872.2375
46.8000 2624.7900
46.8200 2550.7700
46.8400 2612.9225
46.8600 2699.2500
46.8800 2851.4625
46.9000 2854.6500
46.9200 2693.3225
46.9400 2652.2075
46.9600 2643.2775
46.9800 2702.7200
47.0000 2711.6325
47.0200 2622.1450
47.0400 2609.7500
47.0600 2674.6975
47.0800 2671.5150
47.1000 2691.9950
47.1200 2692.0600
47.1400 2636.4775
47.1600 2715.0875
47.1800 2755.6525
47.2000 2859.9725
47.2200 2862.5900
47.2400 2694.7650
47.2600 2489.6150
47.2800 2478.8800
47.3000 2664.7200
47.3200 2773.0500
47.3400 2625.2450
47.3600 2542.1750
47.3800 2631.3300
47.4000 2725.4325
47.4200 2756.5075
47.4400 2594.8150
47.4600 2559.8500
47.4800 2557.4550
47.5000 2527.3550
47.5200 2696.5475
47.5400 2789.9300
47.5600 2682.0450
47.5800 2590.5275
47.6000 2712.9175
47.6200 2726.6150
47.6400 2646.6650
47.6600 2640.5650
47.6800 2682.7150
47.7000 2675.6475
47.7200 2642.7400
47.7400 2649.4675
47.7600 2610.6525
47.7800 2525.7650
47.8000 2536.9650
47.8200 2680.1450
47.8400 2820.2375
47.8600 2662.8625
47.8800 2457.3300
47.9000 2525.5550
47.9200 2644.1300
47.9400 2577.4725
47.9600 2439.2450
47.9800 2527.7950
48.0000 2650.4750
48.0200 2737.5800
48.0400 2711.5225
48.0600 2748.1550
48.0800 2774.8025
48.1000 2686.8175
48.1200 2710.1400
48.1400 2592.3950
48.1600 2546.1000
48.1800 2642.5450
48.2000 2627.6425
48.2200 2648.2075
48.2400 2647.8600
48.2600 2586.4400
48.2800 2763.6200
48.3000 2876.0425
48.3200 2768.5625
48.3400 2655.0625
48.3600 2596.0350
48.3800 2787.8000
48.4000 2827.3650
48.4200 2647.2400
48.4400 2613.4775
48.4600 2589.7300
48.4800 2475.9075
48.5000 2586.9575
48.5200 2771.7750
48.5400 2800.3725
48.5600 2821.3875
48.5800 2702.8400
48.6000 2644.2050
48.6200 2743.4625
48.6400 2748.5750
48.6600 2738.3825
48.6800 2662.8225
48.7000 2544.6225
48.7200 2551.3725
48.7400 2678.7350
48.7600 2645.2900
48.7800 2715.3300
48.8000 2766.3775
48.8200 2766.5875
48.8400 2654.5675
48.8600 2596.7975
48.8800 2668.7675
48.9000 2685.8500
48.9200 2827.8050
48.9400 2766.0500
48.9600 2650.3050
48.9800 2705.8325
49.0000 2780.2150
49.0200 2795.3875
49.0400 2740.1975
49.0600 2583.5700
49.0800 2574.1475
49.1000 2683.9050
49.1200 2855.0875
49.1400 2918.1750
49.1600 2820.1400
49.1800 2933.4200
49.2000 3066.9375
49.2200 3152.4225
49.2400 3229.3000
49.2600 3297.8125
49.2800 3435.6825
49.3000 3516.9250
49.3200 3473.4650
49.3400 3519.4550
49.3600 3543.9525
49.3800 3530.5325
49.4000 3553.5525
49.4200 3481.8725
49.4400 3309.0050
49.4600 3191.6675
49.4800 3071.6925
49.5000 3172.5125
49.5200 3400.6950
49.5400 3215.2200
49.5600 2939.6250
49.5800 3054.9400
49.6000 3087.8875
49.6200 2838.8075
49.6400 2827.3950
49.6600 2895.2950
49.6800 2802.3525
49.7000 2741.8775
49.7200 2613.3225
49.7400 2585.8175
49.7600 2572.3375
49.7800 2462.3975
49.8000 2526.6050
49.8200 2749.5075
49.8400 2793.3750
49.8600 2546.6925
49.8800 2574.5900
49.9000 2690.7125
49.9200 2598.8675
49.9400 2609.6400
49.9600 2632.5950
49.9800 2638.3225
50.0000 2636.6850
50.0200 2574.4625
50.0400 2567.0225
50.0600 2638.6400
50.0800 2610.8500
50.1000 2512.0700
50.1200 2508.6750
50.1400 2571.7600
50.1600 2501.9150
50.1800 2391.6675
50.2000 2421.4050
50.2200 2505.2175
50.2400 2605.0475
50.2600 2565.0825
50.2800 2479.0875
50.3000 2475.0000
50.3200 2547.1400
50.3400 2646.3650
50.3600 2543.5000
50.3800 2543.9025
50.4000 2675.1475
50.4200 2556.1425
50.4400 2560.5000
50.4600 2619.7600
50.4800 2558.3325
50.5000 2520.2025
50.5200 2470.6250
50.5400 2424.4500
50.5600 2408.6050
50.5800 2501.2125
50.6000 2672.3675
50.6200 2665.0825
50.6400 2452.4025
50.6600 2422.0625
50.6800 2584.6150
50.7000 2649.7475
50.7200 2586.8100
50.7400 2495.1500
50.7600 2475.3700
50.7800 2542.2775
50.8000 2600.2425
50.8200 2519.4575
50.8400 2433.4525
50.8600 2674.0625
50.8800 2650.7350
50.9000 2459.0250
50.9200 2504.1100
50.9400 2567.5700
50.9600 2658.6700
50.9800 2666.4450
51.0000 2624.6700
51.0200 2557.7875
51.0400 2588.4175
51.0600 2633.0125
51.0800 2443.7675
51.1000 2388.8125
51.1200 2512.7600
51.1400 2508.0225
51.1600 2521.2925
51.1800 2537.2475
51.2000 2402.8100
51.2200 2321.1825
51.2400 2362.6475
51.2600 2366.5675
51.2800 2370.9800
51.3000 2535.0675
51.3200 2510.5400
51.3400 2345.8800
51.3600 2430.0600
51.3800 2373.5075
51.4000 2229.0275
51.4200 2284.0675
51.4400 2425.8200
51.4600 2335.7375
51.4800 2335.0400
51.5000 2500.0900
51.5200 2491.4900
51.5400 2533.9475
51.5600 2616.9275
51.5800 2612.1975
51.6000 2414.9475
51.6200 2435.2100
51.6400 2536.6950
51.6600 2492.0025
51.6800 2575.5025
51.7000 2625.0000
51.7200 2477.7225
51.7400 2299.6725
51.7600 2363.4375
51.7800 2449.9200
51.8000 2462.7025
51.8200 2453.8850
51.8400 2530.1625
51.8600 2536.5900
51.8800 2458.4900
51.9000 2517.0575
51.9200 2554.1275
51.9400 2495.3300
51.9600 2370.1775
51.9800 2451.3825
52.0000 2536.9275
52.0200 2575.9125
52.0400 2624.5450
52.0600 2427.8475
52.0800 2438.8900
52.1000 2604.2800
52.1200 2452.7150
52.1400 2342.1125
52.1600 2446.3125
52.1800 2558.8475
52.2000 2646.0900
52.2200 2578.3250
52.2400 2483.3325
52.2600 2441.3025
52.2800 2370.5800
52.3000 2392.1000
52.3200 2395.4375
52.3400 2480.2800
52.3600 2591.5225
52.3800 2692.6675
52.4000 2703.2750
52.4200 2532.7650
52.4400 2529.7000
52.4600 2562.2525
52.4800 2516.5250
52.5000 2516.8075
52.5200 2533.3325
52.5400 2474.5075
52.5600 2387.2525
52.5800 2387.7450
52.6000 2374.6475
52.6200 2421.5700
52.6400 2441.1050
52.6600 2396.0075
52.6800 2429.2725
52.7000 2450.0700
52.7200 2542.3675
52.7400 2625.0000
52.7600 2549.3700
52.7800 2458.1925
52.8000 2391.2475
52.8200 2438.3050
52.8400 2436.6925
52.8600 2345.8675
52.8800 2396.2200
52.9000 2534.1050
52.9200 2574.5775
52.9400 2546.0100
52.9600 2528.8500
52.9800 2609.3200
53.0000 2640.9600
53.0200 2449.0800
53.0400 2434.1125
53.0600 2415.7450
53.0800 2430.1975
53.1000 2634.0450
53.1200 2662.0375
53.1400 2490.6650
53.1600 2446.4425
53.1800 2508.2625
53.2000 2529.4175
53.2200 2688.6175
53.2400 2703.1900
53.2600 2595.8700
53.2800 2600.0000
53.3000 2528.5475
53.3200 2512.9750
53.3400 2461.5850
53.3600 2459.2150
53.3800 2621.3850
53.4000 2653.9075
53.4200 2553.5375
53.4400 2449.7025
53.4600 2496.5425
53.4800 2532.9600
53.5000 2470.6450
53.5200 2584.5375
53.5400 2603.1475
53.5600 2424.3925
53.5800 2522.3175
53.6000 2624.4650
53.6200 2591.8975
53.6400 2570.4100
53.6600 2482.9475
53.6800 2517.3650
53.7000 2600.0775
53.7200 2549.4525
53.7400 2655.6950
53.7600 2888.1700
53.7800 2975.1575
53.8000 3029.5225
53.8200 3066.6675
53.8400 3272.7925
53.8600 3462.3800
53.8800 3336.4125
53.9000 3418.5275
53.9200 3700.8950
53.9400 3556.0475
53.9600 3425.9825
53.9800 3453.4675
54.0000 3602.1500
54.0200 3652.5475
54.0400 3504.2925
54.0600 3562.9600
54.0800 3448.4025
54.1000 3127.5200
54.1200 2983.5025
54.1400 3029.4650
54.1600 3045.7050
54.1800 3024.9150
54.2000 2974.5675
54.2200 2823.8725
54.2400 2653.5125
54.2600 2629.5600
54.2800 2696.1400
54.3000 2687.1025
54.3200 2654.2100
54.3400 2725.7125
54.3600 2770.6100
54.3800 2644.7100
54.4000 2461.6425
54.4200 2492.8450
54.4400 2747.4250
54.4600 2879.0300
54.4800 2795.0525
54.5000 2674.4475
54.5200 2785.0925
54.5400 2832.1250
54.5600 2615.4525
54.5800 2727.4400
54.6000 2697.2650
54.6200 2597.3950
54.6400 2611.1200
54.6600 2622.3125
54.6800 2556.1275
54.7000 2354.0225
54.7200 2434.3975
54.7400 2537.6450
54.7600 2394.0275
54.7800 2376.5675
54.8000 2533.6275
54.8200 2554.1175
54.8400 2415.0800
54.8600 2363.4475
54.8800 2458.5325
54.9000 2394.8800
54.9200 2392.5750
54.9400 2416.0600
54.9600 2476.3225
54.9800 2444.1475
55.0000 2299.8975
55.0200 2409.7750
55.0400 2567.1825
55.0600 2414.2800
55.0800 2241.8750
55.1000 2313.1800
55.1200 2282.2825
55.1400 2267.5100
55.1600 2303.7975
55.1800 2321.4175
55.2000 2332.9075
55.2200 2359.0825
55.2400 2437.7675
55.2600 2508.9800
55.2800 2570.9950
55.3000 2486.2525
55.3200 2353.6775
55.3400 2388.4300
55.3600 2500.5475
55.3800 2478.3400
55.4000 2446.2200
55.4200 2534.1100
55.4400 2583.2225
55.4600 2524.3300
55.4800 2500.3350
55.5000 2491.2175
55.5200 2479.4475
55.5400 2428.2050
55.5600 2463.9175
55.5800 2562.4425
55.6000 2482.3050
55.6200 2484.3625
55.6400 2587.9025
55.6600 2692.7025
55.6800 2606.1400
55.7000 2390.8550
55.7200 2384.0300
55.7400 2475.5825
55.7600 2474.4150
55.7800 2399.5325
55.8000 2303.2850
55.8200 2381.1100
55.8400 2529.3450
55.8600 2452.9225
55.8800 2417.3775
55.9000 2487.7975
55.9200 2444.9400
55.9400 2374.8800
55.9600 2375.1200
55.9800 2425.6000
56.0000 2483.5750
56.0200 2377.4175
56.0400 2275.2425
56.0600 2274.7575
56.0800 2342.8800
56.1000 2382.7250
56.1200 2472.7225
56.1400 2506.9900
56.1600 2395.5275
56.1800 2349.6325
56.2000 2371.5100
56.2200 2446.2650
56.2400 2415.8050
56.2600 2320.2775
56.2800 2262.1900
56.3000 2381.2100
56.3200 2436.3225
56.3400 2383.7050
56.3600 2311.0700
56.3800 2246.2700
56.4000 2461.0800
56.4200 2582.4575
56.4400 2605.3550
56.4600 2611.4350
56.4800 2558.5850
56.5000 2642.6725
56.5200 2501.0850
56.5400 2338.0675
56.5600 2311.5550
56.5800 2347.2850
56.6000 2382.4500
56.6200 2371.5275
56.6400 2332.0675
56.6600 2343.0600
56.6800 2391.0325
56.7000 2459.9825
56.7200 2592.0475
56.7400 2515.1425
56.7600 2509.7325
56.7800 2506.9325
56.8000 2387.0550
56.8200 2548.7025
56.8400 2636.0325
56.8600 2528.9750
56.8800 2495.5150
56.9000 2508.8450
56.9200 2520.5125
56.9400 2368.8500
56.9600 2330.5100
56.9800 2518.2025
57.0000 2692.8200
57.0200 2622.8225
57.0400 2555.2550
57.0600 2612.3075
57.0800 2587.3075
57.1000 2532.6925
57.1200 2449.3575
57.1400 2450.6425
57.1600 2580.5150
57.1800 2556.6650
57.2000 2445.7700
57.2200 2395.1275
57.2400 2354.2300
57.2600 2497.9525
57.2800 2607.9475
57.3000 2583.3325
57.3200 2439.4825
57.3400 2410.0025
57.3600 2508.2050
57.3800 2576.1550
57.4000 2637.3075
57.4200 2722.3100
57.4400 2727.8175
57.4600 2671.2825
57.4800 2704.2300
57.5000 2704.1025
57.5200 2759.2325
57.5400 2803.9750
57.5600 2639.3575
57.5800 2432.4350
57.6000 2375.0000
57.6200 2366.5375
57.6400 2485.2550
57.6600 2599.8725
57.6800 2515.5150
57.7000 2335.9000
57.7200 2356.0200
57.7400 2373.4650
57.7600 2325.7675
57.7800 2459.6100
57.8000 2605.1250
57.8200 2704.7400
57.8400 2610.5225
57.8600 2441.0300
57.8800 2298.4725
57.9000 2246.5325
57.9200 2384.7325
57.9400 2428.4675
57.9600 2302.9600
57.9800 2237.6900
58.0000 2275.3800
58.0200 2287.3100
58.0400 2338.4500
58.0600 2438.0700
58.0800 2542.6800
58.1000 2519.5050
58.1200 2513.7000
58.1400 2515.5300
58.1600 2513.5725
58.1800 2566.4150
58.2000 2507.7025
58.2200 2390.5325
58.2400 2401.2575
58.2600 2369.1375
58.2800 2317.5450
58.3000 2320.0175
58.3200 2321.6475
58.3400 2391.9175
58.3600 2391.4175
58.3800 2345.3950
58.4000 2303.9800
58.4200 2295.8950
58.4400 2198.5025
58.4600 2252.2425
58.4800 2416.9150
58.5000 2446.0200
58.5200 2382.2150
58.5400 2363.3075
58.5600 2361.6950
58.5800 2342.1625
58.6000 2290.4300
58.6200 2263.3025
58.6400 2342.0375
58.6600 2320.1550
58.6800 2334.1975
58.7000 2450.8625
58.7200 2444.9100
58.7400 2366.4200
58.7600 2316.1750
58.7800 2207.2300
58.8000 2209.4350
58.8200 2325.6125
58.8400 2404.7175
58.8600 2505.0825
58.8800 2507.4800
58.9000 2479.5925
58.9200 2495.6500
58.9400 2386.1025
58.9600 2507.2650
58.9800 2661.7125
59.0000 2599.8800
59.0200 2490.2125
59.0400 2404.3475
59.0600 2353.2600
59.0800 2312.8025
59.1000 2206.5250
59.1200 2248.1825
59.1400 2518.2300
59.1600 2477.0650
59.1800 2447.4525
59.2000 2562.5600
59.2200 2465.2300
59.2400 2252.5525
59.2600 2213.5150
59.2800 2367.8600
59.3000 2483.8100
59.3200 2525.1200
59.3400 2330.4775
59.3600 2175.5950
59.3800 2280.0575
59.4000 2307.8600
59.4200 2253.8700
59.4400 2377.0125
59.4600 2427.9250
59.4800 2354.3450
59.5000 2375.1175
59.5200 2345.3025
59.5400 2295.6575
59.5600 2372.0675
59.5800 2437.2075
59.6000 2501.1725
59.6200 2481.9275
59.6400 2362.2075
59.6600 2324.7650
59.6800 2481.5625
59.7000 2561.2725
59.7200 2529.9250
59.7400 2519.9600
59.7600 2365.3850
59.7800 2380.6200
59.8000 2487.5575
59.8200 2343.8000
59.8400 2140.8550
59.8600 2218.5200
59.8800 2413.3675
59.9000 2373.6125
59.9200 2317.2450
59.9400 2371.0075
59.9600 2497.3925
59.9800 2515.3975
60.0000 2446.1225
60.0200 2504.6850
60.0400 2440.2875
60.0600 2333.2175
60.0800 2350.3450
60.1000 2366.5525
60.1200 2320.3175
60.1400 2367.8125
60.1600 2433.1050
60.1800 2501.1450
60.2000 2532.6475
60.2200 2487.5575
60.2400 2462.1000
60.2600 2437.5575
60.2800 2433.2200
60.3000 2429.2225
60.3200 2424.8850
60.3400 2471.5725
60.3600 2474.3175
60.3800 2496.8000
60.4000 2528.6550
60.4200 2466.3250
60.4400 2407.8800
60.4600 2383.4475
60.4800 2412.7825
60.5000 2336.1950
60.5200 2157.2000
60.5400 2180.5850
60.5600 2317.1200
60.5800 2303.5425
60.6000 2262.5575
60.6200 2422.9275
60.6400 2334.2725
60.6600 2192.9125
60.6800 2350.9050
60.7000 2361.7650
60.7200 2426.5850
60.7400 2457.2025
60.7600 2341.2150
60.7800 2375.9050
60.8000 2437.4425
60.8200 2365.7625
60.8400 2405.5800
60.8600 2521.0025
60.8800 2554.4500
60.9000 2541.2150
60.9200 2495.6625
60.9400 2483.3325
60.9600 2445.3250
60.9800 2509.6925
61.0000 2376.0525
61.0200 2230.2425
61.0400 2304.1100
61.0600 2321.1175
61.0800 2261.4225
61.1000 2255.1300
61.1200 2367.2350
61.1400 2471.6850
61.1600 2499.5450
61.1800 2437.1025
61.2000 2450.5675
61.2200 2436.7600
61.2400 2387.5575
61.2600 2391.6675
61.2800 2269.1800
61.3000 2348.5125
61.3200 2457.1925
61.3400 2400.3425
61.3600 2361.6425
61.3800 2232.4175
61.4000 2322.9525
61.4200 2445.4325
61.4400 2429.3400
61.4600 2374.0825
61.4800 2304.1100
61.5000 2346.4675
61.5200 2336.7500
61.5400 2359.3725
61.5600 2285.4800
61.5800 2171.2375
61.6000 2335.1850
61.6200 2466.6675
61.6400 2411.7450
61.6600 2324.5350
61.6800 2181.8200
61.7000 2125.7000
61.7200 2280.6250
61.7400 2311.5075
61.7600 2343.0700
61.7800 2407.8650
61.8000 2311.6200
61.8200 2364.0875
61.8400 2559.5125
61.8600 2574.0550
61.8800 2499.8825
61.9000 2483.2150
61.9200 2415.8350
61.9400 2286.4900
61.9600 2419.5250
61.9800 2532.1400
62.0000 2314.7550
62.0200 2301.6775
62.0400 2378.6275
62.0600 2434.6575
62.0800 2465.8225
62.1000 2450.6050
62.1200 2571.9825
62.1400 2552.7725
62.1600 2475.2425
62.1800 2436.7075
62.2000 2556.6725
62.2200 2699.6325
62.2400 2839.8950
62.2600 2873.1550
62.2800 2940.2750
62.3000 3057.3450
62.3200 3076.2400
62.3400 2875.0000
62.3600 2743.7850
62.3800 3090.5625
62.4000 3016.7600
62.4200 2876.8850
62.4400 2894.2575
62.4600 2821.2750
62.4800 2909.2200
62.5000 2831.3000
62.5200 2809.9900
62.5400 2781.2875
62.5600 2607.6925
62.5800 2621.6700
62.6000 2687.6925
62.6200 2644.9925
62.6400 2523.9600
62.6600 2462.5650
62.6800 2458.2025
62.7000 2538.8775
62.7200 2553.0475
62.7400 2330.9550
62.7600 2369.5825
62.7800 2596.5650
62.8000 2565.4650
62.8200 2563.6375
62.8400 2586.7600
62.8600 2393.4725
62.8800 2271.1725
62.9000 2304.3700
62.9200 2282.7875
62.9400 2482.9300
62.9600 2670.2150
62.9800 2506.2650
63.0000 2370.6250
63.0200 2421.8750
63.0400 2512.9875
63.0600 2423.0400
63.0800 2414.2575
63.1000 2364.1250
63.1200 2161.5775
63.1400 2282.0850
63.1600 2399.1425
63.1800 2366.9525
63.2000 2273.1275
63.2200 2209.0575
63.2400 2398.3775
63.2600 2545.9075
63.2800 2418.5625
63.3000 2240.7825
63.3200 2263.7575
63.3400 2367.2600
63.3600 2327.9000
63.3800 2254.0925
63.4000 2135.4675
63.4200 2160.7525
63.4400 2389.2475
63.4600 2440.9050
63.4800 2302.4050
63.5000 2229.5525
63.5200 2288.1950
63.5400 2346.2225
63.5600 2421.8475
63.5800 2445.2850
63.6000 2459.1225
63.6200 2398.1000
63.6400 2342.4625
63.6600 2383.3325
63.6800 2472.5200
63.7000 2566.8275
63.7200 2591.9900
63.7400 2553.1075
63.7600 2563.7300
63.7800 2637.7475
63.8000 2683.9950
63.8200 2606.1700
63.8400 2500.0000
63.8600 2665.7775
63.8800 2756.9825
63.9000 2712.9250
63.9200 2805.6175
63.9400 2951.5450
63.9600 2961.2075
63.9800 2891.4925
64.0000 2887.5875
64.0200 2768.2925
64.0400 2726.5850
64.0600 2808.5100
64.0800 2697.5075
64.1000 2685.4800
64.1200 2757.7925
64.1400 2673.7350
64.1600 2501.7125
64.1800 2434.2475
64.2000 2389.8275
64.2200 2295.5550
64.2400 2436.6775
64.2600 2459.7900
64.2800 2341.6675
64.3000 2350.1900
64.3200 2268.8400
64.3400 2264.3150
64.3600 2405.6075
64.3800 2505.0350
64.4000 2456.3900
64.4200 2443.2300
64.4400 2469.9500
64.4600 2399.2100
64.4800 2298.4100
64.5000 2220.5325
64.5200 2165.6625
64.5400 2240.2275
64.5600 2354.2675
64.5800 2260.1500
64.6000 2162.3975
64.6200 2299.2450
64.6400 2386.3550
64.6600 2307.4975
64.6800 2181.0200
64.7000 2048.9425
64.7200 2110.8875
64.7400 2221.1550
64.7600 2276.0775
64.7800 2333.7675
64.8000 2358.5500
64.8200 2272.5900
64.8400 2208.9950
64.8600 2233.3325
64.8800 2259.0025
64.9000 2184.9200
64.9200 2181.5375
64.9400 2309.4700
64.9600 2388.5275
64.9800 2347.9325
65.0000 2262.1525
65.0200 2288.5475
65.0400 2350.7025
65.0600 2349.2950
65.0800 2342.1400
65.1000 2371.1900
65.1200 2220.4475
65.1400 2182.4225
65.1600 2231.6350
65.1800 2196.4425
65.2000 2259.5600
65.2200 2252.8075
65.2400 2178.2975
65.2600 2278.7500
65.2800 2344.1975
65.3000 2248.7350
65.3200 2281.3300
65.3400 2264.1050
65.3600 2303.6075
65.3800 2304.9625
65.4000 2221.4850
65.4200 2271.7525
65.4400 2334.3900
65.4600 2272.0775
65.4800 2282.2400
65.5000 2211.5575
65.5200 2118.5600
65.5400 2218.0275
65.5600 2236.8150
65.5800 2147.7950
65.6000 2109.1650
65.6200 2124.7200
65.6400 2181.2725
65.6600 2215.8200
65.6800 2239.0625
65.7000 2261.7850
65.7200 2241.6675
65.7400 2353.7625
65.7600 2410.8975
65.7800 2422.7375
65.8000 2285.1800
65.8200 2211.8925
65.8400 2109.8000
65.8600 2192.6450
65.8800 2381.2175
65.9000 2242.9450
65.9200 2097.5525
65.9400 2003.0900
65.9600 2143.5400
65.9800 2140.0675
66.0000 2082.4600
66.0200 2257.4800
66.0400 2397.8975
66.0600 2285.5975
66.0800 2150.6425
66.1000 2183.9800
66.1200 2135.0600
66.1400 2200.5800
66.1600 2260.3575
66.1800 2186.6725
66.2000 2266.3350
66.2200 2284.6475
66.2400 2225.3375
66.2600 2276.6975
66.2800 2342.6925
66.3000 2223.4925
66.3200 2213.1775
66.3400 2186.0950
66.3600 2093.0675
66.3800 2159.7425
66.4000 2187.3225
66.4200 2126.8475
66.4400 2231.4625
66.4600 2175.0250
66.4800 1987.3175
66.5000 2253.0025
66.5200 2299.8700
66.5400 2142.7775
66.5600 2171.0200
66.5800 2218.5400
66.6000 2319.3050
66.6200 2314.0100
66.6400 2127.6075
66.6600 2112.9425
66.6800 2190.8950
66.7000 2227.3325
66.7200 2305.5350
66.7400 2237.3375
66.7600 2176.1875
66.7800 2282.9500
66.8000 2310.2950
66.8200 2201.1425
66.8400 2045.5375
66.8600 2045.7475
66.8800 2151.2325
66.9000 2297.4500
66.9200 2351.4650
66.9400 2229.9875
66.9600 2092.2575
66.9800 2046.8925
67.0000 2119.2225
67.0200 2157.9050
67.0400 2263.9350
67.0600 2226.3975
67.0800 2148.2325
67.1000 2020.6100
67.1200 1989.5125
67.1400 2108.7775
67.1600 2138.6175
67.1800 2162.7250
67.2000 2039.2775
67.2200 2026.0650
67.2400 2195.7850
67.2600 2200.7150
67.2800 2181.2500
67.3000 2207.8675
67.3200 2138.3850
67.3400 2100.9425
67.3600 2165.1075
67.3800 2133.4450
67.4000 2053.4475
67.4200 1979.9525
67.4400 2035.2375
67.4600 2075.9900
67.4800 1972.0525
67.5000 2013.2775
67.5200 2241.7875
67.5400 2277.8300
67.5600 2213.7575
67.5800 2189.1350
67.6000 2092.5250
67.6200 2130.1225
67.6400 2084.4550
67.6600 2112.2000
67.6800 2135.9325
67.7000 2001.2825
67.7200 2086.8150
67.7400 2155.6800
67.7600 2218.6350
67.7800 2193.0225
67.8000 2131.5950
67.8200 2060.1500
67.8400 2037.7025
67.8600 2126.6475
67.8800 2136.6700
67.9000 2156.1125
67.9200 2196.6725
67.9400 2154.9600
67.9600 2117.2325
67.9800 2053.7825
68.0000 1973.8550
68.0200 1922.7000
68.0400 1998.6100
68.0600 2100.5825
68.0800 2068.2000
68.1000 2073.4825
68.1200 2121.7225
68.1400 2119.9400
68.1600 2068.1375
68.1800 2073.5425
68.2000 2063.6375
68.2200 2127.8400
68.2400 2239.0325
68.2600 2222.5350
68.2800 2137.9500
68.3000 2015.5375
68.3200 2097.8400
68.3400 2099.5100
68.3600 2076.8550
68.3800 2114.1175
68.4000 2128.2050
68.4200 2175.6450
68.4400 2142.9150
68.4600 1996.0175
68.4800 1922.4725
68.5000 2049.5775
68.5200 2155.1600
68.5400 2126.1675
68.5600 1992.6250
68.5800 1993.9050
68.6000 1940.5100
68.6200 1864.8850
68.6400 1941.2700
68.6600 2005.8900
68.6800 2074.6450
68.7000 2044.4250
68.7200 2145.9475
68.7400 2179.3975
68.7600 2046.4575
68.7800 2162.1125
68.8000 2187.5950
68.8200 2081.8925
68.8400 2098.3675
68.8600 2106.8775
68.8800 2118.8625
68.9000 2028.2975
68.9200 2028.6075
68.9400 2053.8675
68.9600 1962.9250
68.9800 1970.4300
69.0000 1999.2425
69.0200 2000.7600
69.0400 1985.5875
69.0600 1966.6675
69.0800 1912.0275
69.1000 2030.6575
69.1200 2029.9450
69.1400 1971.3800
69.1600 2066.8450
69.1800 2039.8775
69.2000 1992.4650
69.2200 1949.7525
69.2400 1958.6050
69.2600 1995.4275
69.2800 1987.0925
69.3000 2033.6775
69.3200 2088.7375
69.3400 2145.8100
69.3600 2142.0850
69.3800 2145.0175
69.4000 2129.1225
69.4200 2123.7950
69.4400 2108.6700
69.4600 2061.2175
69.4800 2192.4975
69.5000 2197.9600
69.5200 2126.7375
69.5400 2044.9925
69.5600 1966.6675
69.5800 1943.6275
69.6000 2003.3775
69.6200 1988.2500
69.6400 2012.6850
69.6600 2069.4825
69.6800 1989.0375
69.7000 1984.1750
69.7200 2025.0000
69.7400 2080.5200
69.7600 2074.0800
69.7800 1996.2825
69.8000 1892.5250
69.8200 1935.3325
69.8400 1988.8350
69.8600 1980.5900
69.8800 2056.6750
69.9000 2085.1025
69.9200 1941.1600
69.9400 1920.7300
69.9600 2011.2525
69.9800 2042.6450
70.0000 2003.4175
70.0200 1873.4525
70.0400 1893.2650
70.0600 2115.9700
70.0800 2116.6275
70.1000 2053.0250
70.1200 2032.9400
70.1400 2037.4050
70.1600 2010.5275
70.1800 1957.3050
70.2000 1912.5325
70.2200 1939.5650
70.2400 1955.2025
70.2600 2041.2300
70.2800 2157.8550
70.3000 2131.6750
70.3200 2077.5700
70.3400 1996.1425
70.3600 2002.8200
70.3800 1932.3300
70.4000 1997.0775
70.4200 2144.9400
70.4400 2062.9425
70.4600 1973.8975
70.4800 1980.8275
70.5000 1982.2200
70.5200 1993.9025
70.5400 1890.1300
70.5600 1937.1950
70.5800 2008.5325
70.6000 1883.8725
70.6200 1893.6350
70.6400 1920.4000
70.6600 1867.9450
70.6800 1902.2200
70.7000 1932.1675
70.7200 1920.2475
70.7400 1845.3325
70.7600 1891.5925
70.7800 1914.2950
70.8000 1989.3350
70.8200 1965.3650
70.8400 1940.5675
70.8600 2016.7400
70.8800 2070.3175
70.9000 1929.2100
70.9200 1774.8675
70.9400 1860.0275
70.9600 1975.1725
70.9800 2009.5800
71.0000 1863.3075
71.0200 1879.4750
71.0400 1998.9925
71.0600 1906.2400
71.0800 1901.8650
71.1000 2025.6325
71.1200 1998.0400
71.1400 2047.5500
71.1600 2023.8675
71.1800 1950.0000
71.2000 1925.8900
71.2200 1975.8800
71.2400 1880.1675
71.2600 1886.1075
71.2800 2073.0075
71.3000 1980.7150
71.3200 1998.6850
71.3400 2022.5150
71.3600 2005.4325
71.3800 2067.2750
71.4000 1892.7400
71.4200 1832.5350
71.4400 1974.2525
71.4600 2057.6400
71.4800 2045.8150
71.5000 1956.8575
71.5200 1981.3875
71.5400 1921.2450
71.5600 1909.9375
71.5800 2012.0100
71.6000 1903.5150
71.6200 1883.0625
71.6400 1931.8875
71.6600 1920.1075
71.6800 1897.0850
71.7000 1971.5075
71.7200 1994.1200
71.7400 2064.7650
71.7600 2118.6100
71.7800 2123.0675
71.8000 2182.4800
71.8200 2196.9950
71.8400 2119.3600
71.8600 2055.3025
71.8800 2036.7400
71.9000 2092.5025
71.9200 2128.4000
71.9400 2090.4400
71.9600 2111.1300
71.9800 2136.7225
72.0000 2078.9150
72.0200 2125.8225
72.0400 2158.5650
72.0600 2087.1400
72.0800 2035.1200
72.1000 2074.6375
72.1200 1924.5550
72.1400 2008.7525
72.1600 2090.3150
72.1800 1995.2525
72.2000 1878.6475
72.2200 1909.7250
72.2400 2001.5775
72.2600 2039.9725
72.2800 1940.1325
72.3000 1836.6825
72.3200 1836.6700
72.3400 1875.0200
72.3600 1896.6750
72.3800 2005.2325
72.4000 2090.0425
72.4200 1914.3375
72.4400 1902.1375
72.4600 1939.8250
72.4800 1926.7225
72.5000 1747.1550
72.5200 1705.5650
72.5400 1859.1100
72.5600 1955.2550
72.5800 1843.8075
72.6000 1778.5300
72.6200 1887.6725
72.6400 1864.0400
72.6600 1838.6925
72.6800 1838.0800
72.7000 1819.9325
72.7200 1978.9275
72.7400 1926.0325
72.7600 1972.2575
72.7800 2026.0150
72.8000 1852.5350
72.8200 2012.7650
72.8400 2098.6150
72.8600 1815.5900
72.8800 1763.5575
72.9000 1830.1025
72.9200 1925.2550
72.9400 1942.4500
72.9600 1855.2975
72.9800 1883.1975
73.0000 1930.1225
73.0200 1892.3325
73.0400 1943.6000
73.0600 1858.2200
73.0800 1841.7700
73.1000 2001.5525
73.1200 1972.1275
73.1400 1877.4500
73.1600 1930.4500
73.1800 1892.5225
73.2000 1831.3500
73.2200 1850.8125
73.2400 1820.1700
73.2600 1910.5750
73.2800 1828.1200
73.3000 1733.3325
73.3200 1893.9550
73.3400 1882.7775
73.3600 1816.6675
73.3800 1873.7875
73.4000 1726.4525
73.4200 1705.0750
73.4400 1737.5150
73.4600 1891.6600
73.4800 1892.6375
73.5000 1911.5725
73.5200 1827.8400
73.5400 1760.4475
73.5600 1855.5350
73.5800 1976.3425
73.6000 1891.0175
73.6200 1811.4275
73.6400 1782.1175
73.6600 1771.9150
73.6800 1769.7500
73.7000 1882.2750
73.7200 1739.6425
73.7400 1827.1825
73.7600 1981.6000
73.7800 1841.8750
73.8000 1892.4200
73.8200 1869.4250
73.8400 1766.0700
73.8600 1916.1300
73.8800 1815.6175
73.9000 1705.2950
73.9200 1740.1275
73.9400 1806.0600
73.9600 1849.2550
73.9800 1752.1150
74.0000 1813.9125
74.0200 1846.1000
74.0400 1739.8300
74.0600 1744.9400
74.0800 1822.9825
74.1000 1940.7025
74.1200 1842.1600
74.1400 1801.0825
74.1600 1862.4350
74.1800 1851.2225
74.2000 1827.9775
74.2200 1814.2800
74.2400 1797.6050
74.2600 1920.5075
74.2800 2002.4125
74.3000 1830.9000
74.3200 1830.1900
74.3400 1834.8675
74.3600 1738.2725
74.3800 1640.6725
74.4000 1656.9125
74.4200 1715.7450
74.4400 1846.8625
74.4600 1957.0275
74.4800 1994.1625
74.5000 1859.1100
74.5200 1815.8725
74.5400 1762.7775
74.5600 1757.5900
74.5800 1851.1025
74.6000 1946.0675
74.6200 1953.2225
74.6400 1865.3850
74.6600 1879.5300
74.6800 1853.7600
74.7000 1759.4600
74.7200 1763.2625
74.7400 1745.0425
74.7600 1757.8475
74.7800 1884.5775
74.8000 1864.9000
74.8200 1775.6125
74.8400 1843.3650
74.8600 1842.2000
74.8800 1690.1500
74.9000 1729.5975
74.9200 1788.8425
74.9400 1708.9575
74.9600 1765.9975
74.9800 1844.2800
75.0000 1847.2800
75.0200 1775.2875
75.0400 1802.5625
75.0600 1844.4150
75.0800 1772.3700
75.1000 1761.0800
75.1200 1902.7375
75.1400 1938.8750
75.1600 1930.5625
75.1800 1922.2000
75.2000 1877.6650
75.2200 1969.8575
75.2400 1801.7700
75.2600 1736.3500
75.2800 1758.3325
75.3000 1870.2200
75.3200 1768.2325
75.3400 1786.9250
75.3600 1956.7075
75.3800 2027.8925
75.4000 1898.5225
75.4200 1726.5225
75.4400 1787.5250
75.4600 1785.3575
75.4800 1696.3450
75.5000 1847.1475
75.5200 1888.1775
75.5400 1838.4200
75.5600 1870.2300
75.5800 1823.7650
75.6000 1825.6450
75.6200 1875.6725
75.6400 1766.8725
75.6600 1691.3025
75.6800 1728.7875
75.7000 1784.1175
75.7200 1652.0325
75.7400 1651.6825
75.7600 1683.3325
75.7800 1706.1550
75.8000 1745.2150
75.8200 1632.6125
75.8400 1872.4025
75.8600 2002.6100
75.8800 1942.7125
75.9000 1790.5300
75.9200 1802.1925
75.9400 1810.3625
75.9600 1713.7850
75.9800 1784.2975
76.0000 1666.3725
76.0200 1632.0000
76.0400 1661.5325
76.0600 1689.7525
76.0800 1584.4700
76.1000 1706.7700
76.1200 1748.6175
76.1400 1692.7975
76.1600 1709.7750
76.1800 1701.7975
76.2000 1581.3650
76.2200 1620.4875
76.2400 1832.7875
76.2600 1826.8525
76.2800 1797.4925
76.3000 1904.9350
76.3200 1757.4575
76.3400 1639.9625
76.3600 1660.0675
76.3800 1721.7950
76.4000 1747.5200
76.4200 1855.4650
76.4400 1683.0300
76.4600 1644.4875
76.4800 1737.1550
76.5000 1737.2725
76.5200 1695.5800
76.5400 1618.5575
76.5600 1615.2425
76.5800 1766.5700
76.6000 1789.5775
76.6200 1639.1000
76.6400 1654.2975
76.6600 1837.2200
76.6800 1917.7700
76.7000 1758.9975
76.7200 1768.8050
76.7400 1805.9375
76.7600 1832.1075
76.7800 1782.1800
76.8000 1770.2400
76.8200 1661.7825
76.8400 1765.7625
76.8600 1866.7825
76.8800 1775.8025
76.9000 1637.6700
76.9200 1588.0325
76.9400 1523.4425
76.9600 1583.9200
76.9800 1682.6600
77.0000 1804.4025
77.0200 1715.4675
77.0400 1642.6075
77.0600 1675.4700
77.0800 1721.7900
77.1000 1865.9900
77.1200 1820.1075
77.1400 1886.0150
77.1600 1846.4125
77.1800 1804.5650
77.2000 1654.6700
77.2200 1721.2125
77.2400 1602.8925
77.2600 1778.4300
77.2800 1732.9950
77.3000 1701.5775
77.3200 1653.5575
77.3400 1554.1450
77.3600 1787.1525
77.3800 1938.2500
77.4000 1762.9125
77.4200 1923.9250
77.4400 1843.1675
77.4600 1697.6200
77.4800 1776.9625
77.5000 1749.2075
77.5200 1731.1375
77.5400 1745.6200
77.5600 1553.2550
77.5800 1606.4025
77.6000 1742.3800
77.6200 1885.9500
77.6400 1844.8025
77.6600 1829.0150
77.6800 1579.9750
77.7000 1584.4375
77.7200 1647.6150
77.7400 1695.5050
77.7600 1751.7350
77.7800 1685.9950
77.8000 1602.4375
77.8200 1844.4025
77.8400 1721.8150
77.8600 1625.0950
77.8800 1591.7400
77.9000 1795.3850
77.9200 1816.7300
77.9400 1918.6975
77.9600 1714.4875
77.9800 1564.4975
78.0000 1673.1875
78.0200 1691.5950
78.0400 1664.5125
78.0600 1809.0200
78.0800 1613.2625
78.1000 1602.5125
78.1200 1782.3575
78.1400 1726.2400
78.1600 1540.3525
78.1800 1680.9675
78.2000 1659.5675
78.2200 1633.3325
78.2400 1759.8475
78.2600 1730.3600
78.2800 1746.3500
78.3000 1644.1875
78.3200 1640.0675
78.3400 1656.3525
78.3600 1817.2625
78.3800 1739.4200
78.4000 1617.2200
78.4200 1604.4125
78.4400 1659.3575
78.4600 1700.5325
78.4800 1650.8350
78.5000 1716.4525
78.5200 1600.8875
78.5400 1654.3975
78.5600 1632.0575
78.5800 1738.5475
78.6000 1620.9200
78.6200 1639.2525
78.6400 1555.4450
78.6600 1640.8425
78.6800 1681.4400
78.7000 1689.7800
78.7200 1646.5075
78.7400 1743.0950
78.7600 1833.1550
78.7800 1662.4575
78.8000 1763.6675
78.8200 1860.1525
78.8400 1913.8950
78.8600 1814.7050
78.8800 1692.4300
78.9000 1822.6275
78.9200 1775.6175
78.9400 1815.0875
78.9600 1852.8750
78.9800 1564.9725
79.0000 1672.5400
79.0200 1744.5875
79.0400 1913.3675
79.0600 1801.3750
79.0800 1804.1500
79.1000 1620.1575
79.1200 1606.0000
79.1400 1616.6675
79.1600 1892.4325
79.1800 1710.3950
79.2000 1641.6675
79.2200 1700.9000
79.2400 1677.1475
79.2600 1758.9500
79.2800 1710.7675
79.3000 1539.8200
79.3200 1711.4300
79.3400 1700.5425
79.3600 1835.5350
79.3800 1769.0375
79.4000 1695.2725
79.4200 1802.7275
79.4400 1620.9150
79.4600 1506.8775
79.4800 1684.4675
79.5000 1586.9575
79.5200 1616.5850
79.5400 1786.5975
79.5600 1724.9675
79.5800 1673.3050
79.6000 1680.0250
79.6200 1569.7025
79.6400 1595.1800
79.6600 1762.3025
79.6800 1625.8150
79.7000 1489.4700
79.7200 1701.5000
79.7400 1731.4750
79.7600 1684.6825
79.7800 1668.2750
79.8000 1585.9100
79.8200 1640.7500
79.8400 1698.7725
79.8600 1539.7100
79.8800 1722.7500
79.9000 1788.5100
79.9200 1636.1850
79.9400 1586.4700
79.9600 1637.4950
79.9800 1744.8500
80.0000 1563.2650
