*FILE_COMMENT ""
*FILE_MD5 ""
*FILE_MEMO ""
*FILE_OPERATOR "Administrator"
*FILE_PACKAGE_NAME ""
*FILE_PART_ID "GeneralMeasurement"
*FILE_SAMPLE ""
*FILE_SYSTEM_NAME "MiniFlex"
*FILE_TYPE "RAS_RAW"
*FILE_USERGROUP "Administrators"
*FILE_VERSION "1"
*HW_ATTACHMENT_NAME_INTERNAL "ASC8"
*HW_COUNTER_ID-0 "CUT0025"
*HW_COUNTER_ID-2 "CMC0020"
*HW_COUNTER_MONOCHRO_ID "CMC0020"
*HW_COUNTER_MONOCHRO_NAME "None"
*HW_COUNTER_MONOCHRO_NAME_INTERNAL "None"
*HW_COUNTER_NAME_INTERNAL "DteX100"
*HW_COUNTER_NAME-0 "DteX100"
*HW_COUNTER_NAME-1 "None"
*HW_COUNTER_NAME-2 "None"
*HW_COUNTER_PIXEL_SIZE "0.1"
*HW_COUNTER_SELECT_NAME "DteX100"
*HW_GONIOMETER_ID "GON0021"
*HW_GONIOMETER_NAME "Standard"
*HW_GONIOMETER_NAME_INTERNAL "Standard"
*HW_GONIOMETER_RADIUS-0 "90.0"
*HW_GONIOMETER_RADIUS-1 "114.0"
*HW_GONIOMETER_RADIUS-2 "91.5"
*HW_GONIOMETER_RADIUS-3 "150.0"
*HW_GONIOMETER_RADIUS-4 "103.4"
*HW_GONIOMETER_RADIUS-5 "150.0"
*HW_GONIOMETER_RADIUS-6 "46.6"
*HW_GONIOMETER_RADIUS-7 "150.0"
*HW_I_CBO_ID "CBO0020"
*HW_I_CBO_NAME "No_unit"
*HW_I_CBO_NAME_INTERNAL "No_unit"
*HW_I_MONOCHRO_NAME_INTERNAL "Manual"
*HW_I_OPT_ID-1 "CBO0020"
*HW_I_PRIMARY_NAME_INTERNAL "No_unit"
*HW_I_SLIT_NAME_INTERNAL "Manual"
*HW_R_ATTENUATER_AUTOMODE "0"
*HW_R_ATTENUATER_ID "ATN0020"
*HW_R_ATTENUATER_NAME "No_unit"
*HW_R_ATTENUATOR_NAME_INTERNAL "No_unit"
*HW_R_OPT_ID-1 "RCR0023"
*HW_R_OPT_ID-4 "ATN0020"
*HW_R_ROD_ID "RCR0023"
*HW_R_ROD_NAME "No_unit"
*HW_R_ROD_NAME_INTERNAL "No_unit"
*HW_R_RPS_NAME_INTERNAL "Manual"
*HW_R_RS_NAME_INTERNAL "Manual"
*HW_R_SS_NAME_INTERNAL "Manual"
*HW_SAMPLE_HOLDER_NAME_INTERNAL "None"
*HW_SAMPLE_NAME "None"
*HW_SAMPLE_NAME_INTERNAL "None"
*HW_SAMPLE_PLATE_NAME "None"
*HW_SAMPLE_PLATE_NAME_INTERNAL "None"
*HW_SAMPLE_SPACER_NAME "None"
*HW_SAMPLE_SPACER_NAME_INTERNAL "None"
*HW_USERINFO_CATALOG_NO ""
*HW_USERINFO_INSTRUMENT_ID ""
*HW_USERINFO_INSTRUMENT_NAME ""
*HW_USERINFO_INSTRUMENT_NO ""
*HW_USERINFO_MODEL ""
*HW_USERINFO_ORDER_NO ""
*HW_USERINFO_SERIAL_NO ""
*HW_USERINFO_VERIFY_INSTRUMENT_ID "00-07-fe-03-00-df"
*HW_VER_RCD_COUNTER_UNIT "N/A"
*HW_VER_RCD_CPU "10.0.1"
*HW_VER_RCD_FPGA "3.0.1"
*HW_VER_RCD_GONIO_UNIT "0.0.0"
*HW_VER_RCD_INCIDENT_UNIT "0.0.0"
*HW_VER_RCD_RECEIVING_UNIT "0.0.0"
*HW_VER_RCD_TYPE "RINCII"
*HW_VER_XGC_CPU "10.0.1"
*HW_VER_XGC_CW "5.0.0"
*HW_VER_XGC_HV "5.0.0"
*HW_VER_XGC_RS1 "5.0.0"
*HW_VER_XGC_RS2 "N/A"
*HW_VER_XGC_RT "N/A"
*HW_VER_XGC_TYPE "RINCII"
*HW_XG_CURRENT_UNIT "mA"
*HW_XG_FOCUS "0.4mm x 8mm"
*HW_XG_FOCUS_TYPE "Fine"
*HW_XG_TARGET_ATOMIC_NUMBER "29"
*HW_XG_TARGET_NAME "Cu"
*HW_XG_TYPE "Hermetic"
*HW_XG_VOLTAGE_UNIT "kV"
*HW_XG_WAVE_LENGTH_ALPHA1 "1.540593"
*HW_XG_WAVE_LENGTH_ALPHA2 "1.544414"
*HW_XG_WAVE_LENGTH_BETA "1.392246"
*HW_XG_WAVE_LENGTH_UNIT "Angstrom"
*MEAS_COND_AXIS_NAME_INTERNAL-0 "TwoThetaTheta"
*MEAS_COND_AXIS_NAME_INTERNAL-1 "IncidentSollerSlit"
*MEAS_COND_AXIS_NAME_INTERNAL-10 "Changer"
*MEAS_COND_AXIS_NAME_INTERNAL-11 "ReceivingSlitBox1"
*MEAS_COND_AXIS_NAME_INTERNAL-12 "ReceivingSlitBox1"
*MEAS_COND_AXIS_NAME_INTERNAL-13 "ReceivingSlitBox1"
*MEAS_COND_AXIS_NAME_INTERNAL-14 "Filter"
*MEAS_COND_AXIS_NAME_INTERNAL-15 "ReceivingSollerSlit"
*MEAS_COND_AXIS_NAME_INTERNAL-16 "ReceivingSlitBox2"
*MEAS_COND_AXIS_NAME_INTERNAL-17 "ReceivingSlitBox2"
*MEAS_COND_AXIS_NAME_INTERNAL-18 "ReceivingSlitBox2"
*MEAS_COND_AXIS_NAME_INTERNAL-19 "PHA"
*MEAS_COND_AXIS_NAME_INTERNAL-2 "IncidentSlitBox"
*MEAS_COND_AXIS_NAME_INTERNAL-20 "RS3"
*MEAS_COND_AXIS_NAME_INTERNAL-21 "Target_TargetTime"
*MEAS_COND_AXIS_NAME_INTERNAL-22 "Target_XrayOnTime"
*MEAS_COND_AXIS_NAME_INTERNAL-23 "Target_TMPTime"
*MEAS_COND_AXIS_NAME_INTERNAL-24 "Target_RPTime"
*MEAS_COND_AXIS_NAME_INTERNAL-25 "Target_FilamentTime"
*MEAS_COND_AXIS_NAME_INTERNAL-26 "Target_IG"
*MEAS_COND_AXIS_NAME_INTERNAL-27 "Target_GP"
*MEAS_COND_AXIS_NAME_INTERNAL-28 "Target_FC"
*MEAS_COND_AXIS_NAME_INTERNAL-29 "HVPS_Bias"
*MEAS_COND_AXIS_NAME_INTERNAL-3 "IncidentSlitBox"
*MEAS_COND_AXIS_NAME_INTERNAL-30 "HVPS_HVPSTime"
*MEAS_COND_AXIS_NAME_INTERNAL-31 "HVPS_Type1Time"
*MEAS_COND_AXIS_NAME_INTERNAL-32 "HVPS_Type2Time"
*MEAS_COND_AXIS_NAME_INTERNAL-33 "HVPS_Type3Time"
*MEAS_COND_AXIS_NAME_INTERNAL-34 "CW_IERTime"
*MEAS_COND_AXIS_NAME_INTERNAL-35 "CW_ECTime"
*MEAS_COND_AXIS_NAME_INTERNAL-36 "CW_Flow1"
*MEAS_COND_AXIS_NAME_INTERNAL-37 "CW_Temperature1"
*MEAS_COND_AXIS_NAME_INTERNAL-38 "CW_Pressure1"
*MEAS_COND_AXIS_NAME_INTERNAL-39 "CW_PressureIn"
*MEAS_COND_AXIS_NAME_INTERNAL-4 "IncidentSlitBox"
*MEAS_COND_AXIS_NAME_INTERNAL-40 "CW_PressureOut"
*MEAS_COND_AXIS_NAME_INTERNAL-41 "CW_Flow2"
*MEAS_COND_AXIS_NAME_INTERNAL-42 "CW_Temperature2"
*MEAS_COND_AXIS_NAME_INTERNAL-43 "CW_Pressure2"
*MEAS_COND_AXIS_NAME_INTERNAL-44 "RE_EnclosureTemp"
*MEAS_COND_AXIS_NAME_INTERNAL-45 "RE_EnclosureHummidity"
*MEAS_COND_AXIS_NAME_INTERNAL-46 "RE_CabinetTemp"
*MEAS_COND_AXIS_NAME_INTERNAL-47 "RE_RPTemp"
*MEAS_COND_AXIS_NAME_INTERNAL-48 "RE_ShutterAXrayOnTime"
*MEAS_COND_AXIS_NAME_INTERNAL-49 "RE_ShutterATimes"
*MEAS_COND_AXIS_NAME_INTERNAL-5 "IncidentAxdSlit"
*MEAS_COND_AXIS_NAME_INTERNAL-50 "RE_ShutterAOpenCloseTime"
*MEAS_COND_AXIS_NAME_INTERNAL-51 "RE_ShutterACloseOpenTime"
*MEAS_COND_AXIS_NAME_INTERNAL-52 "RE_ShutterBXrayOnTime"
*MEAS_COND_AXIS_NAME_INTERNAL-53 "RE_ShutterBTimes"
*MEAS_COND_AXIS_NAME_INTERNAL-54 "RE_ShutterBOpenCloseTime"
*MEAS_COND_AXIS_NAME_INTERNAL-55 "RE_ShutterBCloseOpenTime"
*MEAS_COND_AXIS_NAME_INTERNAL-56 "RE_XrayWarningRamp"
*MEAS_COND_AXIS_NAME_INTERNAL-57 "RE_ShutterAInstallation"
*MEAS_COND_AXIS_NAME_INTERNAL-58 "RE_ShutterARamp"
*MEAS_COND_AXIS_NAME_INTERNAL-59 "RE_ShutterBInstallation"
*MEAS_COND_AXIS_NAME_INTERNAL-6 "IncidentAxdSlit"
*MEAS_COND_AXIS_NAME_INTERNAL-60 "RE_ShutterBRamp"
*MEAS_COND_AXIS_NAME_INTERNAL-61 "RE_ExtShutterCLS"
*MEAS_COND_AXIS_NAME_INTERNAL-62 "RE_ExtXrayOFF"
*MEAS_COND_AXIS_NAME_INTERNAL-63 "RE_ExtSafetyCircuit"
*MEAS_COND_AXIS_NAME_INTERNAL-64 "Version_CPU"
*MEAS_COND_AXIS_NAME_INTERNAL-65 "Version_RS1"
*MEAS_COND_AXIS_NAME_INTERNAL-66 "Version_RS2"
*MEAS_COND_AXIS_NAME_INTERNAL-67 "Version_HV"
*MEAS_COND_AXIS_NAME_INTERNAL-68 "Version_CW"
*MEAS_COND_AXIS_NAME_INTERNAL-69 "Version_RT"
*MEAS_COND_AXIS_NAME_INTERNAL-7 "IncidentAxdSlit"
*MEAS_COND_AXIS_NAME_INTERNAL-70 "IncidentPrimary"
*MEAS_COND_AXIS_NAME_INTERNAL-71 "IncidentMonochromator"
*MEAS_COND_AXIS_NAME_INTERNAL-72 "ReceivingOptics"
*MEAS_COND_AXIS_NAME_INTERNAL-73 "CounterMonochromatorKind"
*MEAS_COND_AXIS_NAME_INTERNAL-8 "Filter"
*MEAS_COND_AXIS_NAME_INTERNAL-9 "Beta"
*MEAS_COND_AXIS_NAME-0 "TwoThetaTheta"
*MEAS_COND_AXIS_NAME-1 "IncidentSollerSlit"
*MEAS_COND_AXIS_NAME-10 "Changer"
*MEAS_COND_AXIS_NAME-11 "ReceivingSlitBox1"
*MEAS_COND_AXIS_NAME-12 "ReceivingSlitBox1-_Axis"
*MEAS_COND_AXIS_NAME-13 "SlitSS"
*MEAS_COND_AXIS_NAME-14 "Filter"
*MEAS_COND_AXIS_NAME-15 "ReceivingSollerSlit"
*MEAS_COND_AXIS_NAME-16 "ReceivingSlitBox2"
*MEAS_COND_AXIS_NAME-17 "ReceivingSlitBox2-_Axis"
*MEAS_COND_AXIS_NAME-18 "SlitRS"
*MEAS_COND_AXIS_NAME-19 "PHA"
*MEAS_COND_AXIS_NAME-2 "IncidentSlitBox"
*MEAS_COND_AXIS_NAME-20 "RS3"
*MEAS_COND_AXIS_NAME-21 "Target_TargetTime"
*MEAS_COND_AXIS_NAME-22 "Target_XrayOnTime"
*MEAS_COND_AXIS_NAME-23 "Target_TMPTime"
*MEAS_COND_AXIS_NAME-24 "Target_RPTime"
*MEAS_COND_AXIS_NAME-25 "Target_FilamentTime"
*MEAS_COND_AXIS_NAME-26 "Target_IG"
*MEAS_COND_AXIS_NAME-27 "Target_GP"
*MEAS_COND_AXIS_NAME-28 "Target_FC"
*MEAS_COND_AXIS_NAME-29 "HVPS_Bias"
*MEAS_COND_AXIS_NAME-3 "IncidentSlitBox-_Axis"
*MEAS_COND_AXIS_NAME-30 "HVPS_HVPSTime"
*MEAS_COND_AXIS_NAME-31 "HVPS_Type1Time"
*MEAS_COND_AXIS_NAME-32 "HVPS_Type2Time"
*MEAS_COND_AXIS_NAME-33 "HVPS_Type3Time"
*MEAS_COND_AXIS_NAME-34 "CW_IERTime"
*MEAS_COND_AXIS_NAME-35 "CW_ECTime"
*MEAS_COND_AXIS_NAME-36 "CW_Flow1"
*MEAS_COND_AXIS_NAME-37 "CW_Temperature1"
*MEAS_COND_AXIS_NAME-38 "CW_Pressure1"
*MEAS_COND_AXIS_NAME-39 "CW_PressureIn"
*MEAS_COND_AXIS_NAME-4 "SlitDS"
*MEAS_COND_AXIS_NAME-40 "CW_PressureOut"
*MEAS_COND_AXIS_NAME-41 "CW_Flow2"
*MEAS_COND_AXIS_NAME-42 "CW_Temperature2"
*MEAS_COND_AXIS_NAME-43 "CW_Pressure2"
*MEAS_COND_AXIS_NAME-44 "RE_EnclosureTemp"
*MEAS_COND_AXIS_NAME-45 "RE_EnclosureHummidity"
*MEAS_COND_AXIS_NAME-46 "RE_CabinetTemp"
*MEAS_COND_AXIS_NAME-47 "RE_RPTemp"
*MEAS_COND_AXIS_NAME-48 "RE_ShutterAXrayOnTime"
*MEAS_COND_AXIS_NAME-49 "RE_ShutterATimes"
*MEAS_COND_AXIS_NAME-5 "IncidentAxdSlit"
*MEAS_COND_AXIS_NAME-50 "RE_ShutterAOpenCloseTime"
*MEAS_COND_AXIS_NAME-51 "RE_ShutterACloseOpenTime"
*MEAS_COND_AXIS_NAME-52 "RE_ShutterBXrayOnTime"
*MEAS_COND_AXIS_NAME-53 "RE_ShutterBTimes"
*MEAS_COND_AXIS_NAME-54 "RE_ShutterBOpenCloseTime"
*MEAS_COND_AXIS_NAME-55 "RE_ShutterBCloseOpenTime"
*MEAS_COND_AXIS_NAME-56 "RE_XrayWarningRamp"
*MEAS_COND_AXIS_NAME-57 "RE_ShutterAInstallation"
*MEAS_COND_AXIS_NAME-58 "RE_ShutterARamp"
*MEAS_COND_AXIS_NAME-59 "RE_ShutterBInstallation"
*MEAS_COND_AXIS_NAME-6 "LLS"
*MEAS_COND_AXIS_NAME-60 "RE_ShutterBRamp"
*MEAS_COND_AXIS_NAME-61 "RE_ExtShutterCLS"
*MEAS_COND_AXIS_NAME-62 "RE_ExtXrayOFF"
*MEAS_COND_AXIS_NAME-63 "RE_ExtSafetyCircuit"
*MEAS_COND_AXIS_NAME-64 "Version_CPU"
*MEAS_COND_AXIS_NAME-65 "Version_RS1"
*MEAS_COND_AXIS_NAME-66 "Version_RS2"
*MEAS_COND_AXIS_NAME-67 "Version_HV"
*MEAS_COND_AXIS_NAME-68 "Version_CW"
*MEAS_COND_AXIS_NAME-69 "Version_RT"
*MEAS_COND_AXIS_NAME-7 "DHLSlit"
*MEAS_COND_AXIS_NAME-70 "IncidentPrimary"
*MEAS_COND_AXIS_NAME-71 "IncidentMonochromator"
*MEAS_COND_AXIS_NAME-72 "ReceivingOptics"
*MEAS_COND_AXIS_NAME-73 "CounterMonochromatorKind"
*MEAS_COND_AXIS_NAME-8 "Filter"
*MEAS_COND_AXIS_NAME-9 "Beta"
*MEAS_COND_AXIS_OFFSET-0 "0"
*MEAS_COND_AXIS_OFFSET-1 "0"
*MEAS_COND_AXIS_OFFSET-10 "0"
*MEAS_COND_AXIS_OFFSET-11 "0"
*MEAS_COND_AXIS_OFFSET-12 "0"
*MEAS_COND_AXIS_OFFSET-13 "0"
*MEAS_COND_AXIS_OFFSET-14 "0"
*MEAS_COND_AXIS_OFFSET-15 "0"
*MEAS_COND_AXIS_OFFSET-16 "0"
*MEAS_COND_AXIS_OFFSET-17 "0"
*MEAS_COND_AXIS_OFFSET-18 "0"
*MEAS_COND_AXIS_OFFSET-19 "0"
*MEAS_COND_AXIS_OFFSET-2 "0"
*MEAS_COND_AXIS_OFFSET-20 "0"
*MEAS_COND_AXIS_OFFSET-21 "0"
*MEAS_COND_AXIS_OFFSET-22 "0"
*MEAS_COND_AXIS_OFFSET-23 "0"
*MEAS_COND_AXIS_OFFSET-24 "0"
*MEAS_COND_AXIS_OFFSET-25 "0"
*MEAS_COND_AXIS_OFFSET-26 "0"
*MEAS_COND_AXIS_OFFSET-27 "0"
*MEAS_COND_AXIS_OFFSET-28 "0"
*MEAS_COND_AXIS_OFFSET-29 "0"
*MEAS_COND_AXIS_OFFSET-3 "0"
*MEAS_COND_AXIS_OFFSET-30 "0"
*MEAS_COND_AXIS_OFFSET-31 "0"
*MEAS_COND_AXIS_OFFSET-32 "0"
*MEAS_COND_AXIS_OFFSET-33 "0"
*MEAS_COND_AXIS_OFFSET-34 "0"
*MEAS_COND_AXIS_OFFSET-35 "0"
*MEAS_COND_AXIS_OFFSET-36 "0"
*MEAS_COND_AXIS_OFFSET-37 "0"
*MEAS_COND_AXIS_OFFSET-38 "0"
*MEAS_COND_AXIS_OFFSET-39 "0"
*MEAS_COND_AXIS_OFFSET-4 "0"
*MEAS_COND_AXIS_OFFSET-40 "0"
*MEAS_COND_AXIS_OFFSET-41 "0"
*MEAS_COND_AXIS_OFFSET-42 "0"
*MEAS_COND_AXIS_OFFSET-43 "0"
*MEAS_COND_AXIS_OFFSET-44 "0"
*MEAS_COND_AXIS_OFFSET-45 "0"
*MEAS_COND_AXIS_OFFSET-46 "0"
*MEAS_COND_AXIS_OFFSET-47 "0"
*MEAS_COND_AXIS_OFFSET-48 "0"
*MEAS_COND_AXIS_OFFSET-49 "0"
*MEAS_COND_AXIS_OFFSET-5 "0"
*MEAS_COND_AXIS_OFFSET-50 "0"
*MEAS_COND_AXIS_OFFSET-51 "0"
*MEAS_COND_AXIS_OFFSET-52 "0"
*MEAS_COND_AXIS_OFFSET-53 "0"
*MEAS_COND_AXIS_OFFSET-54 "0"
*MEAS_COND_AXIS_OFFSET-55 "0"
*MEAS_COND_AXIS_OFFSET-56 "0"
*MEAS_COND_AXIS_OFFSET-57 "0"
*MEAS_COND_AXIS_OFFSET-58 "0"
*MEAS_COND_AXIS_OFFSET-59 "0"
*MEAS_COND_AXIS_OFFSET-6 "0"
*MEAS_COND_AXIS_OFFSET-60 "0"
*MEAS_COND_AXIS_OFFSET-61 "0"
*MEAS_COND_AXIS_OFFSET-62 "0"
*MEAS_COND_AXIS_OFFSET-63 "0"
*MEAS_COND_AXIS_OFFSET-64 "0"
*MEAS_COND_AXIS_OFFSET-65 "0"
*MEAS_COND_AXIS_OFFSET-66 "0"
*MEAS_COND_AXIS_OFFSET-67 "0"
*MEAS_COND_AXIS_OFFSET-68 "0"
*MEAS_COND_AXIS_OFFSET-69 "0"
*MEAS_COND_AXIS_OFFSET-7 "0"
*MEAS_COND_AXIS_OFFSET-70 "0"
*MEAS_COND_AXIS_OFFSET-71 "0"
*MEAS_COND_AXIS_OFFSET-72 "0"
*MEAS_COND_AXIS_OFFSET-73 "0"
*MEAS_COND_AXIS_OFFSET-8 "0"
*MEAS_COND_AXIS_OFFSET-9 "0"
*MEAS_COND_AXIS_POSITION-0 "12.0000"
*MEAS_COND_AXIS_POSITION-1 "Soller_slit_2.5deg"
*MEAS_COND_AXIS_POSITION-10 "3"
*MEAS_COND_AXIS_POSITION-11 "8.0mm"
*MEAS_COND_AXIS_POSITION-12 "8.0mm"
*MEAS_COND_AXIS_POSITION-13 "8.0mm"
*MEAS_COND_AXIS_POSITION-14 "K_beta_x1.5"
*MEAS_COND_AXIS_POSITION-15 "Soller_slit_2.5deg"
*MEAS_COND_AXIS_POSITION-16 "Open"
*MEAS_COND_AXIS_POSITION-17 "Open"
*MEAS_COND_AXIS_POSITION-18 "Open"
*MEAS_COND_AXIS_POSITION-19 "43"
*MEAS_COND_AXIS_POSITION-2 "1.25deg"
*MEAS_COND_AXIS_POSITION-20 "Open"
*MEAS_COND_AXIS_POSITION-3 "1.25deg"
*MEAS_COND_AXIS_POSITION-4 "1.25deg"
*MEAS_COND_AXIS_POSITION-5 "10mm"
*MEAS_COND_AXIS_POSITION-6 "10mm"
*MEAS_COND_AXIS_POSITION-7 "10mm"
*MEAS_COND_AXIS_POSITION-70 "No_unit"
*MEAS_COND_AXIS_POSITION-71 "Manual"
*MEAS_COND_AXIS_POSITION-72 "No_unit"
*MEAS_COND_AXIS_POSITION-73 "None"
*MEAS_COND_AXIS_POSITION-8 "None"
*MEAS_COND_AXIS_RESOLUTION-0 "0.0025"
*MEAS_COND_AXIS_RESOLUTION-1 ""
*MEAS_COND_AXIS_RESOLUTION-10 "1"
*MEAS_COND_AXIS_RESOLUTION-11 ""
*MEAS_COND_AXIS_RESOLUTION-12 ""
*MEAS_COND_AXIS_RESOLUTION-13 ""
*MEAS_COND_AXIS_RESOLUTION-14 ""
*MEAS_COND_AXIS_RESOLUTION-15 ""
*MEAS_COND_AXIS_RESOLUTION-16 ""
*MEAS_COND_AXIS_RESOLUTION-17 ""
*MEAS_COND_AXIS_RESOLUTION-18 ""
*MEAS_COND_AXIS_RESOLUTION-19 "1"
*MEAS_COND_AXIS_RESOLUTION-2 ""
*MEAS_COND_AXIS_RESOLUTION-20 "0.1"
*MEAS_COND_AXIS_RESOLUTION-21 "0.01"
*MEAS_COND_AXIS_RESOLUTION-22 "0.010000"
*MEAS_COND_AXIS_RESOLUTION-23 "0.01"
*MEAS_COND_AXIS_RESOLUTION-24 "0.01"
*MEAS_COND_AXIS_RESOLUTION-25 "0.01"
*MEAS_COND_AXIS_RESOLUTION-26 "1"
*MEAS_COND_AXIS_RESOLUTION-27 "1"
*MEAS_COND_AXIS_RESOLUTION-28 "0.01"
*MEAS_COND_AXIS_RESOLUTION-29 "1"
*MEAS_COND_AXIS_RESOLUTION-3 ""
*MEAS_COND_AXIS_RESOLUTION-30 "0.01"
*MEAS_COND_AXIS_RESOLUTION-31 "0.01"
*MEAS_COND_AXIS_RESOLUTION-32 "0.01"
*MEAS_COND_AXIS_RESOLUTION-33 "0.01"
*MEAS_COND_AXIS_RESOLUTION-34 "0.010000"
*MEAS_COND_AXIS_RESOLUTION-35 "1"
*MEAS_COND_AXIS_RESOLUTION-36 "0.100000"
*MEAS_COND_AXIS_RESOLUTION-37 "1.000000"
*MEAS_COND_AXIS_RESOLUTION-38 "0.010000"
*MEAS_COND_AXIS_RESOLUTION-39 "0.01"
*MEAS_COND_AXIS_RESOLUTION-4 ""
*MEAS_COND_AXIS_RESOLUTION-40 "0.01"
*MEAS_COND_AXIS_RESOLUTION-41 "0.1"
*MEAS_COND_AXIS_RESOLUTION-42 "1"
*MEAS_COND_AXIS_RESOLUTION-43 "0.01"
*MEAS_COND_AXIS_RESOLUTION-44 "1.000000"
*MEAS_COND_AXIS_RESOLUTION-45 "1"
*MEAS_COND_AXIS_RESOLUTION-46 "1.000000"
*MEAS_COND_AXIS_RESOLUTION-47 "1"
*MEAS_COND_AXIS_RESOLUTION-48 "0.01"
*MEAS_COND_AXIS_RESOLUTION-49 "1"
*MEAS_COND_AXIS_RESOLUTION-5 ""
*MEAS_COND_AXIS_RESOLUTION-50 "1"
*MEAS_COND_AXIS_RESOLUTION-51 "1"
*MEAS_COND_AXIS_RESOLUTION-52 "0.01"
*MEAS_COND_AXIS_RESOLUTION-53 "1.000000"
*MEAS_COND_AXIS_RESOLUTION-54 "1.000000"
*MEAS_COND_AXIS_RESOLUTION-55 "1.000000"
*MEAS_COND_AXIS_RESOLUTION-56 "-"
*MEAS_COND_AXIS_RESOLUTION-57 "-"
*MEAS_COND_AXIS_RESOLUTION-58 "-"
*MEAS_COND_AXIS_RESOLUTION-59 "1.000000"
*MEAS_COND_AXIS_RESOLUTION-6 ""
*MEAS_COND_AXIS_RESOLUTION-60 "-"
*MEAS_COND_AXIS_RESOLUTION-61 "-"
*MEAS_COND_AXIS_RESOLUTION-62 "-"
*MEAS_COND_AXIS_RESOLUTION-63 "1.000000"
*MEAS_COND_AXIS_RESOLUTION-64 "1.000000"
*MEAS_COND_AXIS_RESOLUTION-65 "1.000000"
*MEAS_COND_AXIS_RESOLUTION-66 "1.000000"
*MEAS_COND_AXIS_RESOLUTION-67 "1.000000"
*MEAS_COND_AXIS_RESOLUTION-68 "1.000000"
*MEAS_COND_AXIS_RESOLUTION-69 "1.000000"
*MEAS_COND_AXIS_RESOLUTION-7 ""
*MEAS_COND_AXIS_RESOLUTION-8 ""
*MEAS_COND_AXIS_RESOLUTION-9 "0.9"
*MEAS_COND_AXIS_SPEED_RESOLUTION-9 "0.1"
*MEAS_COND_AXIS_SPEED_UNIT-9 "rpm"
*MEAS_COND_AXIS_SPEED-9 "80"
*MEAS_COND_AXIS_STATE-0 "Scan"
*MEAS_COND_AXIS_STATE-1 "Fixed"
*MEAS_COND_AXIS_STATE-10 "Fixed"
*MEAS_COND_AXIS_STATE-11 "Fixed"
*MEAS_COND_AXIS_STATE-12 "Fixed"
*MEAS_COND_AXIS_STATE-13 "Fixed"
*MEAS_COND_AXIS_STATE-14 "Fixed"
*MEAS_COND_AXIS_STATE-15 "Fixed"
*MEAS_COND_AXIS_STATE-16 "Fixed"
*MEAS_COND_AXIS_STATE-17 "Fixed"
*MEAS_COND_AXIS_STATE-18 "Fixed"
*MEAS_COND_AXIS_STATE-19 "Fixed"
*MEAS_COND_AXIS_STATE-2 "Fixed"
*MEAS_COND_AXIS_STATE-20 "Fixed"
*MEAS_COND_AXIS_STATE-21 "Fixed"
*MEAS_COND_AXIS_STATE-22 "Fixed"
*MEAS_COND_AXIS_STATE-23 "Fixed"
*MEAS_COND_AXIS_STATE-24 "Fixed"
*MEAS_COND_AXIS_STATE-25 "Fixed"
*MEAS_COND_AXIS_STATE-26 "Fixed"
*MEAS_COND_AXIS_STATE-27 "Fixed"
*MEAS_COND_AXIS_STATE-28 "Fixed"
*MEAS_COND_AXIS_STATE-29 "Fixed"
*MEAS_COND_AXIS_STATE-3 "Fixed"
*MEAS_COND_AXIS_STATE-30 "Fixed"
*MEAS_COND_AXIS_STATE-31 "Fixed"
*MEAS_COND_AXIS_STATE-32 "Fixed"
*MEAS_COND_AXIS_STATE-33 "Fixed"
*MEAS_COND_AXIS_STATE-34 "Fixed"
*MEAS_COND_AXIS_STATE-35 "Fixed"
*MEAS_COND_AXIS_STATE-36 "Fixed"
*MEAS_COND_AXIS_STATE-37 "Fixed"
*MEAS_COND_AXIS_STATE-38 "Fixed"
*MEAS_COND_AXIS_STATE-39 "Fixed"
*MEAS_COND_AXIS_STATE-4 "Fixed"
*MEAS_COND_AXIS_STATE-40 "Fixed"
*MEAS_COND_AXIS_STATE-41 "Fixed"
*MEAS_COND_AXIS_STATE-42 "Fixed"
*MEAS_COND_AXIS_STATE-43 "Fixed"
*MEAS_COND_AXIS_STATE-44 "Fixed"
*MEAS_COND_AXIS_STATE-45 "Fixed"
*MEAS_COND_AXIS_STATE-46 "Fixed"
*MEAS_COND_AXIS_STATE-47 "Fixed"
*MEAS_COND_AXIS_STATE-48 "Fixed"
*MEAS_COND_AXIS_STATE-49 "Fixed"
*MEAS_COND_AXIS_STATE-5 "Fixed"
*MEAS_COND_AXIS_STATE-50 "Fixed"
*MEAS_COND_AXIS_STATE-51 "Fixed"
*MEAS_COND_AXIS_STATE-52 "Fixed"
*MEAS_COND_AXIS_STATE-53 "Fixed"
*MEAS_COND_AXIS_STATE-54 "Fixed"
*MEAS_COND_AXIS_STATE-55 "Fixed"
*MEAS_COND_AXIS_STATE-56 "Fixed"
*MEAS_COND_AXIS_STATE-57 "Fixed"
*MEAS_COND_AXIS_STATE-58 "Fixed"
*MEAS_COND_AXIS_STATE-59 "Fixed"
*MEAS_COND_AXIS_STATE-6 "Fixed"
*MEAS_COND_AXIS_STATE-60 "Fixed"
*MEAS_COND_AXIS_STATE-61 "Fixed"
*MEAS_COND_AXIS_STATE-62 "Fixed"
*MEAS_COND_AXIS_STATE-63 "Fixed"
*MEAS_COND_AXIS_STATE-64 "Fixed"
*MEAS_COND_AXIS_STATE-65 "Fixed"
*MEAS_COND_AXIS_STATE-66 "Fixed"
*MEAS_COND_AXIS_STATE-67 "Fixed"
*MEAS_COND_AXIS_STATE-68 "Fixed"
*MEAS_COND_AXIS_STATE-69 "Fixed"
*MEAS_COND_AXIS_STATE-7 "Fixed"
*MEAS_COND_AXIS_STATE-8 "Fixed"
*MEAS_COND_AXIS_STATE-9 "Rotation"
*MEAS_COND_AXIS_UNIT-0 "deg"
*MEAS_COND_AXIS_UNIT-1 ""
*MEAS_COND_AXIS_UNIT-10 ""
*MEAS_COND_AXIS_UNIT-11 ""
*MEAS_COND_AXIS_UNIT-12 ""
*MEAS_COND_AXIS_UNIT-13 ""
*MEAS_COND_AXIS_UNIT-14 ""
*MEAS_COND_AXIS_UNIT-15 ""
*MEAS_COND_AXIS_UNIT-16 ""
*MEAS_COND_AXIS_UNIT-17 ""
*MEAS_COND_AXIS_UNIT-18 ""
*MEAS_COND_AXIS_UNIT-19 "div"
*MEAS_COND_AXIS_UNIT-2 ""
*MEAS_COND_AXIS_UNIT-20 ""
*MEAS_COND_AXIS_UNIT-21 "H"
*MEAS_COND_AXIS_UNIT-22 "H"
*MEAS_COND_AXIS_UNIT-23 "H"
*MEAS_COND_AXIS_UNIT-24 "H"
*MEAS_COND_AXIS_UNIT-25 "H"
*MEAS_COND_AXIS_UNIT-26 "mV"
*MEAS_COND_AXIS_UNIT-27 "V"
*MEAS_COND_AXIS_UNIT-28 "V"
*MEAS_COND_AXIS_UNIT-29 "V"
*MEAS_COND_AXIS_UNIT-3 ""
*MEAS_COND_AXIS_UNIT-30 "H"
*MEAS_COND_AXIS_UNIT-31 "H"
*MEAS_COND_AXIS_UNIT-32 "H"
*MEAS_COND_AXIS_UNIT-33 "H"
*MEAS_COND_AXIS_UNIT-34 "H"
*MEAS_COND_AXIS_UNIT-35 "uS/m"
*MEAS_COND_AXIS_UNIT-36 "L/min"
*MEAS_COND_AXIS_UNIT-37 "degree"
*MEAS_COND_AXIS_UNIT-38 "MPa"
*MEAS_COND_AXIS_UNIT-39 "MPa"
*MEAS_COND_AXIS_UNIT-4 ""
*MEAS_COND_AXIS_UNIT-40 "MPa"
*MEAS_COND_AXIS_UNIT-41 "L/min"
*MEAS_COND_AXIS_UNIT-42 "C"
*MEAS_COND_AXIS_UNIT-43 "MPa"
*MEAS_COND_AXIS_UNIT-44 "degree"
*MEAS_COND_AXIS_UNIT-45 "percent"
*MEAS_COND_AXIS_UNIT-46 "degree"
*MEAS_COND_AXIS_UNIT-47 "C"
*MEAS_COND_AXIS_UNIT-48 "H"
*MEAS_COND_AXIS_UNIT-49 "time"
*MEAS_COND_AXIS_UNIT-5 ""
*MEAS_COND_AXIS_UNIT-50 "msec"
*MEAS_COND_AXIS_UNIT-51 "msec"
*MEAS_COND_AXIS_UNIT-52 "H"
*MEAS_COND_AXIS_UNIT-53 "times"
*MEAS_COND_AXIS_UNIT-54 "msec"
*MEAS_COND_AXIS_UNIT-55 "msec"
*MEAS_COND_AXIS_UNIT-56 "-"
*MEAS_COND_AXIS_UNIT-57 "-"
*MEAS_COND_AXIS_UNIT-58 "-"
*MEAS_COND_AXIS_UNIT-59 ""
*MEAS_COND_AXIS_UNIT-6 ""
*MEAS_COND_AXIS_UNIT-60 "-"
*MEAS_COND_AXIS_UNIT-61 "-"
*MEAS_COND_AXIS_UNIT-62 "-"
*MEAS_COND_AXIS_UNIT-63 ""
*MEAS_COND_AXIS_UNIT-64 ""
*MEAS_COND_AXIS_UNIT-65 ""
*MEAS_COND_AXIS_UNIT-66 ""
*MEAS_COND_AXIS_UNIT-67 ""
*MEAS_COND_AXIS_UNIT-68 ""
*MEAS_COND_AXIS_UNIT-69 ""
*MEAS_COND_AXIS_UNIT-7 ""
*MEAS_COND_AXIS_UNIT-70 ""
*MEAS_COND_AXIS_UNIT-71 ""
*MEAS_COND_AXIS_UNIT-72 ""
*MEAS_COND_AXIS_UNIT-73 ""
*MEAS_COND_AXIS_UNIT-8 ""
*MEAS_COND_AXIS_UNIT-9 "deg"
*MEAS_COND_COUNTER_CENTER_X "0.5"
*MEAS_COND_COUNTER_CENTER_Y "67.34"
*MEAS_COND_COUNTER_COUNTMODE "Differential"
*MEAS_COND_COUNTER_DEADTIMECORRECTION "Enabled"
*MEAS_COND_COUNTER_DISTANCE "150"
*MEAS_COND_COUNTER_ENERGYMODE "XRFReduction"
*MEAS_COND_COUNTER_PHA_UNIT "div"
*MEAS_COND_COUNTER_PHABASE "43"
*MEAS_COND_COUNTER_PHAWINDOW "21"
*MEAS_COND_COUNTER_PITCH_X "20"
*MEAS_COND_COUNTER_PITCH_Y "0.1"
*MEAS_COND_COUNTER_PITCHUNIT "mm"
*MEAS_COND_COUNTER_VALIDWIDTH_X "1"
*MEAS_COND_COUNTER_VALIDWIDTH_Y "200"
*MEAS_COND_XG_CURRENT "15"
*MEAS_COND_XG_VOLTAGE "40"
*MEAS_COND_XG_WAVE_TYPE "Ka"
*MEAS_DATA_COUNT "3751"
*MEAS_SCAN_AXIS_X "TwoThetaTheta"
*MEAS_SCAN_AXIS_X_INTERNAL "TwoThetaTheta"
*MEAS_SCAN_END_TIME "06/03/2024 13:05:40"
*MEAS_SCAN_MODE "CONTINUOUS"
*MEAS_SCAN_MODE_INTERNAL "TDI_1D"
*MEAS_SCAN_RESOLUTION_X "0.0025"
*MEAS_SCAN_SPEED "10.0000"
*MEAS_SCAN_SPEED_UNIT "deg/min"
*MEAS_SCAN_START "5.0000"
*MEAS_SCAN_START_TIME "06/03/2024 12:57:30"
*MEAS_SCAN_STEP "0.0200"
*MEAS_SCAN_STOP "80.0000"
*MEAS_SCAN_UNEQUALY_SPACED "False"
*MEAS_SCAN_UNIT_X "deg"
*MEAS_SCAN_UNIT_Y "cps"
#Intensity_unit=cps
#Attenuator_coefficient=1.0000
5.0000 1941.6675
5.0200 1941.6675
5.0400 1941.6675
5.0600 1920.5825
5.0800 1845.1825
5.1000 1828.4250
5.1200 1734.2700
5.1400 1829.9450
5.1600 1916.9925
5.1800 1779.1475
5.2000 1650.6825
5.2200 1822.4575
5.2400 1866.1675
5.2600 1854.5425
5.2800 1913.8800
5.3000 1868.2075
5.3200 1941.8825
5.3400 1841.1450
5.3600 1785.2975
5.3800 1739.0025
5.4000 1924.1300
5.4200 2060.8025
5.4400 2018.9850
5.4600 2051.2300
5.4800 1978.8025
5.5000 1826.1100
5.5200 1875.6625
5.5400 1816.6675
5.5600 1841.5825
5.5800 1958.2600
5.6000 2030.4075
5.6200 1954.7700
5.6400 1922.0625
5.6600 1876.7425
5.6800 2001.7525
5.7000 2082.1600
5.7200 2007.7425
5.7400 1928.5875
5.7600 1777.9750
5.7800 1876.7925
5.8000 1983.9325
5.8200 2020.2400
5.8400 2010.0950
5.8600 1923.2125
5.8800 1916.6675
5.9000 1918.4550
5.9200 1907.1100
5.9400 1855.9825
5.9600 1926.2300
5.9800 2002.4075
6.0000 2073.8925
6.0200 2145.1100
6.0400 1975.0000
6.0600 1975.0000
6.0800 1928.4250
6.1000 1817.4550
6.1200 2026.1675
6.1400 1996.4150
6.1600 1981.5425
6.1800 1978.5850
6.2000 2002.4200
6.2200 2020.1575
6.2400 1947.0450
6.2600 1982.8000
6.2800 2052.4225
6.3000 2141.8600
6.3200 2296.3175
6.3400 2162.9850
6.3600 2074.4675
6.3800 2101.0675
6.4000 2044.2775
6.4200 2245.1575
6.4400 2137.9900
6.4600 2106.8150
6.4800 2342.7425
6.5000 2164.0725
6.5200 1995.4200
6.5400 2109.2525
6.5600 1865.6600
6.5800 2046.3400
6.6000 1947.0400
6.6200 1970.2475
6.6400 2017.3525
6.6600 2130.9250
6.6800 2084.5075
6.7000 2027.9100
6.7200 1952.4500
6.7400 2060.0775
6.7600 2034.0200
6.7800 2212.4500
6.8000 2083.9375
6.8200 2105.9425
6.8400 2059.5200
6.8600 2051.1975
6.8800 2088.0925
6.9000 1974.4050
6.9200 1988.0750
6.9400 2138.7050
6.9600 2066.6675
6.9800 2088.0675
7.0000 2123.8800
7.0200 1980.9250
7.0400 2086.7800
7.0600 2272.6475
7.0800 2183.4850
7.1000 2035.5925
7.1200 2195.1300
7.1400 2250.2100
7.1600 2066.6675
7.1800 2052.4525
7.2000 2060.3875
7.2200 2283.3325
7.2400 2267.3625
7.2600 2181.7275
7.2800 2083.3325
7.3000 2070.9275
7.3200 2028.5425
7.3400 2009.8000
7.3600 1951.8300
7.3800 2187.3800
7.4000 2176.7650
7.4200 2028.5050
7.4400 2238.9100
7.4600 2182.5500
7.4800 2179.9300
7.5000 1978.2075
7.5200 2062.1900
7.5400 2034.4000
7.5600 2177.4825
7.5800 2021.1050
7.6000 2075.3925
7.6200 1964.0100
7.6400 1930.2875
7.6600 2078.5100
7.6800 2037.3150
7.7000 1884.1450
7.7200 2103.0150
7.7400 2196.0850
7.7600 2139.5100
7.7800 2117.4725
7.8000 2125.7125
7.8200 1957.1875
7.8400 2122.4875
7.8600 2062.1950
7.8800 2094.4050
7.9000 2062.5425
7.9200 2164.2650
7.9400 2236.1050
7.9600 2200.6900
7.9800 2261.4650
8.0000 2262.4600
8.0200 2326.0850
8.0400 2261.4775
8.0600 2246.8525
8.0800 2221.7650
8.1000 2093.1375
8.1200 2265.2300
8.1400 2272.7200
8.1600 2146.6500
8.1800 1979.4950
8.2000 2130.1525
8.2200 2182.6100
8.2400 2244.8900
8.2600 2023.9825
8.2800 2077.3025
8.3000 1967.7450
8.3200 2131.6250
8.3400 2136.9450
8.3600 2191.8575
8.3800 2196.0475
8.4000 2117.3600
8.4200 2226.2050
8.4400 2189.3650
8.4600 2367.6250
8.4800 2196.4725
8.5000 2156.7700
8.5200 2147.8275
8.5400 2045.4900
8.5600 2188.2925
8.5800 2190.1675
8.6000 2219.7000
8.6200 2116.8150
8.6400 2166.5375
8.6600 2081.5475
8.6800 2035.1425
8.7000 2139.9925
8.7200 2141.6925
8.7400 2193.3675
8.7600 2254.9925
8.7800 2188.3450
8.8000 2118.3150
8.8200 2176.6100
8.8400 2253.3200
8.8600 2236.8325
8.8800 2159.7050
8.9000 2323.4150
8.9200 2266.8225
8.9400 2204.9475
8.9600 2218.4125
8.9800 2170.2850
9.0000 2086.6175
9.0200 2098.3600
9.0400 2088.3900
9.0600 2030.8325
9.0800 1867.9700
9.1000 1998.7625
9.1200 2239.8500
9.1400 2227.6250
9.1600 2141.3875
9.1800 2402.9600
9.2000 2219.6725
9.2200 2284.4575
9.2400 2348.6425
9.2600 2305.1075
9.2800 2278.7850
9.3000 2215.3525
9.3200 2158.9475
9.3400 2160.5925
9.3600 2403.5875
9.3800 2200.3425
9.4000 2155.4975
9.4200 2143.3775
9.4400 2291.6675
9.4600 2307.5450
9.4800 2322.6825
9.5000 2153.8150
9.5200 2365.9500
9.5400 2293.2450
9.5600 2296.8500
9.5800 2299.0575
9.6000 2358.8175
9.6200 2298.3600
9.6400 2239.6500
9.6600 2466.1550
9.6800 2352.6925
9.7000 2189.5575
9.7200 2208.9000
9.7400 2192.0575
9.7600 2232.6100
9.7800 2092.6050
9.8000 2179.6075
9.8200 2378.7150
9.8400 2301.4700
9.8600 2105.2250
9.8800 2299.4725
9.9000 2117.7925
9.9200 2312.9100
9.9400 2319.6300
9.9600 2256.8125
9.9800 2293.9825
10.0000 2503.7775
10.0200 2529.6275
10.0400 2378.8900
10.0600 2313.4300
10.0800 2413.9550
10.1000 2245.5025
10.1200 2233.9750
10.1400 2300.3775
10.1600 2444.9725
10.1800 2488.7750
10.2000 2140.6250
10.2200 2347.4200
10.2400 2255.3775
10.2600 2281.4700
10.2800 2404.8800
10.3000 2134.2825
10.3200 2191.7650
10.3400 2126.1550
10.3600 2373.9575
10.3800 2379.2300
10.4000 2273.6100
10.4200 2365.6025
10.4400 2096.3425
10.4600 2188.6200
10.4800 2272.9000
10.5000 2013.4800
10.5200 2222.7875
10.5400 2499.0375
10.5600 2351.8675
10.5800 2426.0225
10.6000 2357.0950
10.6200 2390.2500
10.6400 2364.9750
10.6600 2275.0000
10.6800 2307.3225
10.7000 2444.2375
10.7200 2327.7400
10.7400 2281.8650
10.7600 2237.5850
10.7800 2466.6675
10.8000 2456.9750
10.8200 2422.1425
10.8400 2486.1575
10.8600 2443.2200
10.8800 2328.2975
10.9000 2164.7675
10.9200 2312.7325
10.9400 2259.5175
10.9600 2311.0450
10.9800 2314.1825
11.0000 2263.7275
11.0200 2342.7750
11.0400 2535.9025
11.0600 2194.4475
11.0800 2371.3275
11.1000 2338.9275
11.1200 2454.9000
11.1400 2256.3475
11.1600 2474.5800
11.1800 2475.8950
11.2000 2268.8250
11.2200 2340.6925
11.2400 2400.2275
11.2600 2286.1675
11.2800 2402.0350
11.3000 2453.1650
11.3200 2432.7300
11.3400 2460.8700
11.3600 2408.9475
11.3800 2556.3850
11.4000 2585.3025
11.4200 2518.2775
11.4400 2354.3175
11.4600 2465.3525
11.4800 2690.4100
11.5000 2667.0450
11.5200 2571.2525
11.5400 2586.1050
11.5600 2792.9075
11.5800 2798.7625
11.6000 2775.6400
11.6200 2656.2975
11.6400 2513.4725
11.6600 2578.2400
11.6800 2470.8025
11.7000 2310.9125
11.7200 2358.0825
11.7400 2319.7475
11.7600 2674.9325
11.7800 2623.8050
11.8000 2561.8500
11.8200 2267.7700
11.8400 2495.1150
11.8600 2600.1600
11.8800 2455.3575
11.9000 2239.5200
11.9200 2584.5000
11.9400 2557.9675
11.9600 2328.0025
11.9800 2196.2800
12.0000 2244.5350
12.0200 2349.4950
12.0400 2259.9125
12.0600 2388.6325
12.0800 2456.8925
12.1000 2323.6300
12.1200 2226.3000
12.1400 2368.5125
12.1600 2543.8950
12.1800 2511.7275
12.2000 2233.7550
12.2200 2385.6900
12.2400 2320.1700
12.2600 2523.6200
12.2800 2596.7300
12.3000 2366.1025
12.3200 2124.3100
12.3400 2408.5900
12.3600 2501.9525
12.3800 2685.2400
12.4000 2307.4200
12.4200 2349.8900
12.4400 2318.9900
12.4600 2501.0100
12.4800 2453.1250
12.5000 2487.4450
12.5200 2524.4125
12.5400 2170.7775
12.5600 2222.5075
12.5800 2412.8675
12.6000 2591.5475
12.6200 2360.0900
12.6400 2452.4150
12.6600 2539.6900
12.6800 2178.2300
12.7000 2326.9800
12.7200 2355.4600
12.7400 2453.4300
12.7600 2383.4925
12.7800 2164.4000
12.8000 2406.7625
12.8200 2458.3325
12.8400 2454.5075
12.8600 2418.3400
12.8800 2365.7200
12.9000 2375.2850
12.9200 2493.3425
12.9400 2357.2925
12.9600 2233.3525
12.9800 2362.0550
13.0000 2342.4250
13.0200 2491.5425
13.0400 2533.8375
13.0600 2351.3775
13.0800 2481.1575
13.1000 2338.3850
13.1200 2430.4800
13.1400 2294.0150
13.1600 2494.3000
13.1800 2260.3700
13.2000 2480.3950
13.2200 2379.8850
13.2400 2340.5750
13.2600 2290.7025
13.2800 2588.5475
13.3000 2680.5625
13.3200 2444.2075
13.3400 2527.5350
13.3600 2417.3475
13.3800 2550.3725
13.4000 2330.7100
13.4200 2398.7350
13.4400 2533.6125
13.4600 2459.9325
13.4800 2467.8450
13.5000 2393.6825
13.5200 2350.5900
13.5400 2518.2250
13.5600 2527.1425
13.5800 2463.5925
13.6000 2434.0975
13.6200 2446.9725
13.6400 2474.4100
13.6600 2234.6025
13.6800 2415.9250
13.7000 2425.2750
13.7200 2580.9900
13.7400 2392.0425
13.7600 2466.0425
13.7800 2302.6375
13.8000 2494.1425
13.8200 2359.2700
13.8400 2549.3025
13.8600 2516.0150
13.8800 2282.1675
13.9000 2814.0825
13.9200 2671.3625
13.9400 2446.3650
13.9600 2495.3400
13.9800 2413.9325
14.0000 2110.0000
14.0200 2327.5975
14.0400 2358.9775
14.0600 2379.4300
14.0800 2530.8025
14.1000 2484.9525
14.1200 2311.1850
14.1400 2456.7725
14.1600 2548.9875
14.1800 2628.3675
14.2000 2455.9375
14.2200 2420.2550
14.2400 2355.9825
14.2600 2340.1275
14.2800 2534.1775
14.3000 2439.0375
14.3200 2521.1850
14.3400 2578.8625
14.3600 2514.4525
14.3800 2483.8800
14.4000 2496.0000
14.4200 2552.4375
14.4400 2457.6525
14.4600 2333.9150
14.4800 2465.6300
14.5000 2457.1800
14.5200 2562.1050
14.5400 2494.6725
14.5600 2536.2175
14.5800 2462.7250
14.6000 2651.1925
14.6200 2402.8650
14.6400 2455.1900
14.6600 2552.8475
14.6800 2726.4875
14.7000 2472.1150
14.7200 2557.2550
14.7400 2408.9125
14.7600 2721.0300
14.7800 2783.2200
14.8000 2478.3950
14.8200 2537.4825
14.8400 2462.8675
14.8600 2559.3450
14.8800 2732.4600
14.9000 2550.0000
14.9200 2551.5525
14.9400 2577.2200
14.9600 2456.7700
14.9800 2599.2600
15.0000 2592.7950
15.0200 2796.4225
15.0400 2701.5425
15.0600 2367.6650
15.0800 2581.9750
15.1000 2540.6650
15.1200 2326.4825
15.1400 2575.9775
15.1600 2802.3500
15.1800 2648.1475
15.2000 2607.2600
15.2200 2797.3325
15.2400 2712.8150
15.2600 2384.6525
15.2800 2656.1125
15.3000 2590.8525
15.3200 2567.7275
15.3400 2593.7850
15.3600 2406.5700
15.3800 2614.6950
15.4000 2549.7600
15.4200 2544.2375
15.4400 2636.9725
15.4600 2762.0225
15.4800 2589.3025
15.5000 2508.7550
15.5200 2841.1075
15.5400 2487.0525
15.5600 2640.5300
15.5800 2589.8375
15.6000 2509.5700
15.6200 2572.9650
15.6400 2874.6725
15.6600 2853.2975
15.6800 2592.7225
15.7000 2651.5900
15.7200 2742.2200
15.7400 2769.0800
15.7600 2403.1275
15.7800 2608.2150
15.8000 2602.2425
15.8200 2766.4550
15.8400 2748.8100
15.8600 2649.5375
15.8800 2608.5050
15.9000 2625.4775
15.9200 2675.0000
15.9400 2673.5400
15.9600 2493.3425
15.9800 2724.0950
16.0000 2583.1475
16.0200 2551.3600
16.0400 2832.4300
16.0600 2608.4400
16.0800 2641.8675
16.1000 2724.9050
16.1200 2666.6875
16.1400 2691.6625
16.1600 2566.7625
16.1800 2832.9125
16.2000 2658.7500
16.2200 2600.1850
16.2400 2633.2000
16.2600 2550.4000
16.2800 2632.8675
16.3000 2765.8125
16.3200 2692.2075
16.3400 2873.5275
16.3600 2635.4700
16.3800 2757.1250
16.4000 2758.3325
16.4200 2651.2225
16.4400 2666.4650
16.4600 2855.8575
16.4800 2776.1450
16.5000 2816.0600
16.5200 2792.0500
16.5400 2701.4850
16.5600 2806.4900
16.5800 2603.7200
16.6000 2698.1325
16.6200 2928.7825
16.6400 2949.6600
16.6600 2917.3725
16.6800 3087.8175
16.7000 2814.8000
16.7200 3150.0550
16.7400 2727.4825
16.7600 2838.5025
16.7800 2947.1675
16.8000 2812.1575
16.8200 2800.2325
16.8400 2937.6050
16.8600 2909.3175
16.8800 2843.6900
16.9000 2688.2725
16.9200 2747.8650
16.9400 2999.8400
16.9600 2815.0775
16.9800 2945.1025
17.0000 2909.8100
17.0200 2819.9925
17.0400 2591.9950
17.0600 2807.8075
17.0800 2992.8825
17.1000 3096.0325
17.1200 3060.0225
17.1400 2890.5750
17.1600 2939.2025
17.1800 2925.7175
17.2000 2901.1000
17.2200 2971.6400
17.2400 2871.6150
17.2600 3033.5225
17.2800 3081.3575
17.3000 3202.3000
17.3200 3311.3450
17.3400 3134.5825
17.3600 2856.0775
17.3800 2810.0575
17.4000 2816.2275
17.4200 3037.5250
17.4400 2860.8675
17.4600 2889.3675
17.4800 2813.0075
17.5000 2871.2025
17.5200 3047.7300
17.5400 3199.5275
17.5600 3059.4350
17.5800 3128.2950
17.6000 2875.2025
17.6200 3014.6300
17.6400 3251.4175
17.6600 2915.6625
17.6800 3109.8650
17.7000 3202.8550
17.7200 3402.7825
17.7400 3758.5750
17.7600 3977.4150
17.7800 4464.7725
17.8000 4554.2400
17.8200 5169.8725
17.8400 5611.0775
17.8600 6174.7700
17.8800 6085.4500
17.9000 6352.6050
17.9200 6051.4425
17.9400 5355.4225
17.9600 4946.3150
17.9800 4624.7750
18.0000 4231.6550
18.0200 3954.6775
18.0400 3581.0275
18.0600 3504.0925
18.0800 3683.4500
18.1000 3394.5500
18.1200 3275.1225
18.1400 3167.5925
18.1600 3021.2875
18.1800 3038.7575
18.2000 3094.8550
18.2200 3077.2275
18.2400 2817.1675
18.2600 2996.2100
18.2800 3084.7800
18.3000 3038.7425
18.3200 3259.9175
18.3400 3132.4300
18.3600 3063.9025
18.3800 3050.8025
18.4000 3170.3550
18.4200 3070.6150
18.4400 3261.0200
18.4600 3178.3450
18.4800 3069.2775
18.5000 3058.3325
18.5200 3133.0950
18.5400 3373.1875
18.5600 3079.1875
18.5800 3049.1200
18.6000 3124.4525
18.6200 3073.8325
18.6400 3148.3950
18.6600 3047.0025
18.6800 3285.4175
18.7000 2887.0900
18.7200 3166.2750
18.7400 3297.0250
18.7600 3271.4175
18.7800 3038.0325
18.8000 3089.3750
18.8200 3063.2025
18.8400 2852.4800
18.8600 3118.7625
18.8800 3099.6450
18.9000 3186.9350
18.9200 2973.0650
18.9400 3065.9825
18.9600 3112.5525
18.9800 3065.5875
19.0000 3218.6900
19.0200 3015.9525
19.0400 3194.2550
19.0600 3188.6725
19.0800 3263.1650
19.1000 3195.2550
19.1200 3320.9225
19.1400 3211.4625
19.1600 3307.2775
19.1800 3231.1700
19.2000 3375.2800
19.2200 3335.1850
19.2400 3411.3250
19.2600 3425.0000
19.2800 3145.0650
19.3000 3286.4150
19.3200 3259.3725
19.3400 3071.1550
19.3600 2991.6450
19.3800 2990.4700
19.4000 3141.3925
19.4200 3401.6825
19.4400 3363.4175
19.4600 3527.6400
19.4800 3515.7475
19.5000 3253.1125
19.5200 3321.6350
19.5400 3362.8875
19.5600 3479.7100
19.5800 3507.0575
19.6000 3296.8625
19.6200 3209.0475
19.6400 3523.5100
19.6600 3506.0625
19.6800 3477.6325
19.7000 3482.0075
19.7200 3651.3400
19.7400 3403.6475
19.7600 3433.8075
19.7800 3422.0975
19.8000 3500.2775
19.8200 3307.8825
19.8400 3419.5950
19.8600 3574.9750
19.8800 3378.0825
19.9000 3471.8675
19.9200 3465.4075
19.9400 3375.4100
19.9600 3310.0200
19.9800 3555.0725
20.0000 3449.9650
20.0200 3272.2425
20.0400 3646.9425
20.0600 3733.3325
20.0800 3527.7550
20.1000 3490.1775
20.1200 3532.6825
20.1400 3514.3550
20.1600 3521.9725
20.1800 3463.7000
20.2000 3545.2400
20.2200 3573.4600
20.2400 3541.0700
20.2600 3641.7800
20.2800 3409.4225
20.3000 3485.2250
20.3200 3671.9825
20.3400 3573.4425
20.3600 3548.4025
20.3800 3644.1900
20.4000 3646.5075
20.4200 3581.2675
20.4400 3325.3700
20.4600 3280.0550
20.4800 3483.9125
20.5000 3346.3625
20.5200 3560.0975
20.5400 3678.2850
20.5600 3744.8850
20.5800 3711.8250
20.6000 3414.6750
20.6200 3580.2400
20.6400 3502.6775
20.6600 3453.4475
20.6800 3476.4075
20.7000 3582.2325
20.7200 3641.2575
20.7400 3676.3050
20.7600 3479.7325
20.7800 3523.3900
20.8000 3798.9325
20.8200 3539.5500
20.8400 3521.8725
20.8600 3489.4650
20.8800 3546.6850
20.9000 3508.0925
20.9200 3693.1600
20.9400 3607.1925
20.9600 3670.3900
20.9800 3661.1550
21.0000 3662.9300
21.0200 3757.0650
21.0400 3763.9875
21.0600 3687.4950
21.0800 3763.1375
21.1000 3708.1700
21.1200 3580.7075
21.1400 3799.8175
21.1600 3836.6175
21.1800 3767.5050
21.2000 3552.2275
21.2200 3771.9975
21.2400 3896.5075
21.2600 3787.6075
21.2800 3750.0000
21.3000 3686.6325
21.3200 3919.7875
21.3400 3747.2250
21.3600 3881.2325
21.3800 3805.0525
21.4000 3859.0275
21.4200 3941.9450
21.4400 3832.8125
21.4600 3641.2500
21.4800 3860.7900
21.5000 3825.0000
21.5200 3870.7125
21.5400 3744.1850
21.5600 3747.6825
21.5800 3698.3000
21.6000 3519.8375
21.6200 3621.6100
21.6400 3718.3225
21.6600 3770.4150
21.6800 3777.1625
21.7000 3756.5125
21.7200 3737.6925
21.7400 3647.3000
21.7600 3720.9875
21.7800 3966.6775
21.8000 3735.7175
21.8200 3771.6450
21.8400 3825.0000
21.8600 3617.8500
21.8800 3705.9300
21.9000 3657.3150
21.9200 3919.9800
21.9400 3912.1850
21.9600 3884.8125
21.9800 3819.1875
22.0000 3773.5725
22.0200 3869.0425
22.0400 3872.2525
22.0600 3948.4000
22.0800 3863.4200
22.1000 3762.7850
22.1200 3956.8725
22.1400 3999.8825
22.1600 4001.2150
22.1800 3984.5275
22.2000 3844.2650
22.2200 4052.7475
22.2400 3962.8175
22.2600 3983.9025
22.2800 3924.5825
22.3000 4007.1925
22.3200 4087.7800
22.3400 4135.2825
22.3600 3921.0175
22.3800 3737.0625
22.4000 3776.0950
22.4200 3948.6025
22.4400 4119.2100
22.4600 4050.1325
22.4800 4011.6350
22.5000 4039.9025
22.5200 4009.4000
22.5400 3829.5200
22.5600 3966.4850
22.5800 3827.4125
22.6000 3874.8650
22.6200 3878.3600
22.6400 4102.8300
22.6600 4136.3475
22.6800 4088.5425
22.7000 4111.9300
22.7200 3970.8250
22.7400 3854.3900
22.7600 3969.9450
22.7800 3737.8100
22.8000 3724.8300
22.8200 4038.2650
22.8400 3892.4975
22.8600 3953.0200
22.8800 4143.1525
22.9000 4084.7150
22.9200 3904.0750
22.9400 3959.4975
22.9600 3971.8525
22.9800 3989.1500
23.0000 3868.7400
23.0200 4028.5625
23.0400 4113.8375
23.0600 3955.5275
23.0800 3999.8300
23.1000 4052.7950
23.1200 4121.8825
23.1400 4174.8950
23.1600 4188.8450
23.1800 4070.6200
23.2000 3843.5425
23.2200 3835.1075
23.2400 3869.5250
23.2600 3812.0100
23.2800 3745.1375
23.3000 3817.6075
23.3200 4024.3775
23.3400 4189.7725
23.3600 4249.5925
23.3800 4031.0750
23.4000 3832.7075
23.4200 3721.5625
23.4400 3817.9200
23.4600 3805.6775
23.4800 3978.3075
23.5000 3853.6225
23.5200 4005.3975
23.5400 4017.2100
23.5600 3885.3775
23.5800 3890.2500
23.6000 3807.4400
23.6200 3903.7300
23.6400 3912.2900
23.6600 4014.5800
23.6800 3778.3200
23.7000 3796.9725
23.7200 3937.6875
23.7400 3829.3450
23.7600 3920.6700
23.7800 3969.6200
23.8000 3727.7200
23.8200 3808.3600
23.8400 3922.9325
23.8600 4108.7175
23.8800 4162.8250
23.9000 3975.0100
23.9200 3847.1925
23.9400 3840.4600
23.9600 4055.7750
23.9800 4034.4150
24.0000 3962.1700
24.0200 3959.6500
24.0400 3837.6375
24.0600 3685.0975
24.0800 3811.4425
24.1000 3721.8150
24.1200 3890.8150
24.1400 4047.9050
24.1600 3903.7575
24.1800 3673.7250
24.2000 3897.1250
24.2200 3997.8075
24.2400 4000.2200
24.2600 3814.7475
24.2800 3848.1825
24.3000 3805.4500
24.3200 3890.7650
24.3400 3930.6050
24.3600 3822.0375
24.3800 3692.6775
24.4000 3797.9075
24.4200 4015.2850
24.4400 3965.2150
24.4600 3976.6650
24.4800 3870.0650
24.5000 3813.6175
24.5200 3741.1125
24.5400 3780.2050
24.5600 3740.1625
24.5800 3951.0850
24.6000 4064.8825
24.6200 3904.5900
24.6400 3860.9800
24.6600 3850.9050
24.6800 3915.0950
24.7000 3835.7975
24.7200 3728.5425
24.7400 3658.0600
24.7600 3856.4775
24.7800 3898.7875
24.8000 3815.4325
24.8200 3814.3575
24.8400 3960.9725
24.8600 3984.1050
24.8800 3979.0700
24.9000 3892.1425
24.9200 3886.6650
24.9400 3830.7275
24.9600 3855.9875
24.9800 3930.3200
25.0000 3749.9150
25.0200 3773.7975
25.0400 3752.4500
25.0600 3650.9300
25.0800 3727.6575
25.1000 3806.3950
25.1200 3871.0275
25.1400 3995.6075
25.1600 3961.2350
25.1800 3838.4025
25.2000 3899.6375
25.2200 3997.7775
25.2400 4080.3150
25.2600 4019.9125
25.2800 3875.1975
25.3000 3986.9450
25.3200 4003.9525
25.3400 4106.2925
25.3600 4297.4475
25.3800 4137.4600
25.4000 3996.7450
25.4200 3950.3375
25.4400 3761.9950
25.4600 3726.0700
25.4800 3791.1350
25.5000 3716.9825
25.5200 3711.3000
25.5400 3916.8950
25.5600 4089.0975
25.5800 4050.8850
25.6000 3860.3850
25.6200 3842.0975
25.6400 3976.9050
25.6600 3921.0200
25.6800 3846.3475
25.7000 3936.2475
25.7200 4016.9725
25.7400 4050.8575
25.7600 3988.9975
25.7800 3985.5650
25.8000 3976.9925
25.8200 4053.7800
25.8400 4174.4275
25.8600 4005.4100
25.8800 3858.1800
25.9000 3921.9725
25.9200 4122.6150
25.9400 4190.9950
25.9600 4188.0000
25.9800 4346.5550
26.0000 4332.7900
26.0200 4433.8475
26.0400 4629.1650
26.0600 4504.3950
26.0800 4516.1425
26.1000 4711.9625
26.1200 4948.5650
26.1400 5104.2150
26.1600 5145.2075
26.1800 5261.3725
26.2000 5427.4200
26.2200 5594.3800
26.2400 6216.3450
26.2600 6763.2325
26.2800 7175.0675
26.3000 7847.8625
26.3200 8195.7400
26.3400 8578.7950
26.3600 9130.7050
26.3800 9465.6950
26.4000 9639.4925
26.4200 9672.4550
26.4400 9274.8800
26.4600 8805.2350
26.4800 8346.7475
26.5000 7742.9700
26.5200 7091.9250
26.5400 6401.3250
26.5600 5921.1275
26.5800 5767.3900
26.6000 5433.7525
26.6200 5044.9675
26.6400 4793.0600
26.6600 4691.9900
26.6800 4645.7425
26.7000 4390.1850
26.7200 4298.6525
26.7400 4355.8375
26.7600 4256.8725
26.7800 4132.3450
26.8000 3996.5675
26.8200 3837.8000
26.8400 3840.1050
26.8600 3878.1325
26.8800 3965.9325
26.9000 4019.0100
26.9200 4034.8700
26.9400 4248.5800
26.9600 4170.4250
26.9800 4000.0000
27.0000 3985.1675
27.0200 3863.1100
27.0400 3840.3100
27.0600 3905.0950
27.0800 3710.2475
27.1000 3659.1825
27.1200 3730.1625
27.1400 3719.7425
27.1600 3795.7175
27.1800 3793.4950
27.2000 3911.4325
27.2200 3985.6325
27.2400 3716.2175
27.2600 3688.3325
27.2800 3733.3025
27.3000 3677.3575
27.3200 3649.0125
27.3400 3673.1975
27.3600 3631.3200
27.3800 3460.2550
27.4000 3561.0725
27.4200 3671.9025
27.4400 3735.4900
27.4600 3638.4125
27.4800 3493.7650
27.5000 3532.6075
27.5200 3532.0850
27.5400 3535.0625
27.5600 3611.7725
27.5800 3500.0675
27.6000 3350.4325
27.6200 3548.9200
27.6400 3728.5875
27.6600 3608.0450
27.6800 3458.2250
27.7000 3210.9375
27.7200 3204.0800
27.7400 3380.2675
27.7600 3466.7150
27.7800 3401.6700
27.8000 3366.3725
27.8200 3473.5850
27.8400 3365.3775
27.8600 3471.3225
27.8800 3578.9350
27.9000 3351.4925
27.9200 3543.0200
27.9400 3705.9575
27.9600 3591.7700
27.9800 3592.7000
28.0000 3498.4100
28.0200 3523.5175
28.0400 3406.3775
28.0600 3474.7375
28.0800 3582.5250
28.1000 3449.2300
28.1200 3379.9150
28.1400 3310.3175
28.1600 3434.2500
28.1800 3364.3650
28.2000 3473.2625
28.2200 3587.7200
28.2400 3287.4475
28.2600 3364.1700
28.2800 3507.8125
28.3000 3551.5900
28.3200 3449.5275
28.3400 3501.9550
28.3600 3548.1325
28.3800 3507.0100
28.4000 3645.1375
28.4200 3270.4325
28.4400 3306.7425
28.4600 3441.5400
28.4800 3585.3950
28.5000 3488.0550
28.5200 3520.2500
28.5400 3756.1250
28.5600 3987.6300
28.5800 3914.6250
28.6000 4049.8050
28.6200 4378.5950
28.6400 4422.1750
28.6600 4770.0750
28.6800 5291.7800
28.7000 6118.2525
28.7200 7047.3100
28.7400 7980.4325
28.7600 8876.7900
28.7800 9247.1200
28.8000 8791.7625
28.8200 8327.8325
28.8400 8096.2225
28.8600 7337.9575
28.8800 6472.3775
28.9000 5715.5575
28.9200 5230.3175
28.9400 4800.2575
28.9600 4352.7650
28.9800 4314.2475
29.0000 4123.4075
29.0200 3807.2225
29.0400 3616.0500
29.0600 3631.7125
29.0800 3538.5350
29.1000 3456.0650
29.1200 3281.4475
29.1400 3429.4625
29.1600 3526.3600
29.1800 3623.9325
29.2000 3616.7125
29.2200 3520.7050
29.2400 3551.7700
29.2600 3501.6775
29.2800 3452.8925
29.3000 3318.1650
29.3200 3429.2650
29.3400 3336.8550
29.3600 3225.6150
29.3800 3282.6575
29.4000 3521.4925
29.4200 3642.6350
29.4400 3544.9325
29.4600 3477.7950
29.4800 3317.3075
29.5000 3224.1300
29.5200 3200.8025
29.5400 3313.7625
29.5600 3441.2350
29.5800 3361.4025
29.6000 3378.8475
29.6200 3371.9725
29.6400 3471.3625
29.6600 3458.2300
29.6800 3775.5300
29.7000 3740.2825
29.7200 3394.8100
29.7400 3275.0625
29.7600 3314.2875
29.7800 3277.5125
29.8000 3159.8600
29.8200 3140.6400
29.8400 3303.1600
29.8600 3190.3300
29.8800 3173.4900
29.9000 3092.5875
29.9200 3125.8825
29.9400 3207.3525
29.9600 3337.7725
29.9800 3228.7350
30.0000 3105.9875
30.0200 3162.1550
30.0400 3203.9075
30.0600 3358.9475
30.0800 3385.5600
30.1000 3378.3625
30.1200 3295.3025
30.1400 3232.6150
30.1600 3416.6675
30.1800 3375.2625
30.2000 3243.1475
30.2200 3217.2800
30.2400 3251.6125
30.2600 3227.6000
30.2800 3219.3950
30.3000 3016.3600
30.3200 3015.2475
30.3400 3147.8200
30.3600 3118.7600
30.3800 3143.7525
30.4000 3233.1825
30.4200 3281.7225
30.4400 3116.7800
30.4600 3118.2550
30.4800 3212.2150
30.5000 3237.8425
30.5200 3159.6675
30.5400 3061.4325
30.5600 3197.9425
30.5800 3318.1925
30.6000 3159.2900
30.6200 3038.0075
30.6400 3274.9775
30.6600 3340.4350
30.6800 3211.6425
30.7000 3265.4475
30.7200 3339.7225
30.7400 3409.0200
30.7600 3526.0025
30.7800 3900.4475
30.8000 3657.6250
30.8200 4199.5025
30.8400 4728.6275
30.8600 5304.8250
30.8800 5723.2750
30.9000 5642.2200
30.9200 5683.9250
30.9400 5269.1175
30.9600 5066.1700
30.9800 4688.3925
31.0000 4460.6275
31.0200 4112.9475
31.0400 3710.6150
31.0600 3700.7300
31.0800 3590.1725
31.1000 3762.2275
31.1200 3354.5475
31.1400 3365.1475
31.1600 3559.3625
31.1800 3422.3975
31.2000 3272.0125
31.2200 3346.5475
31.2400 3268.1900
31.2600 3189.9450
31.2800 3332.0175
31.3000 3171.0850
31.3200 3332.1500
31.3400 3185.9550
31.3600 3036.3225
31.3800 3115.4925
31.4000 3195.6500
31.4200 3001.6275
31.4400 3187.9125
31.4600 3324.8775
31.4800 3229.1525
31.5000 3260.0650
31.5200 3119.7875
31.5400 3000.5700
31.5600 3209.7700
31.5800 3125.0175
31.6000 3095.1225
31.6200 3292.5275
31.6400 3218.2325
31.6600 3040.7125
31.6800 3061.8025
31.7000 2994.1725
31.7200 2997.0650
31.7400 3207.8225
31.7600 3463.5650
31.7800 3180.8600
31.8000 3259.8700
31.8200 3311.1350
31.8400 3298.5675
31.8600 3177.7200
31.8800 3242.9400
31.9000 3309.3850
31.9200 3356.6875
31.9400 3173.6575
31.9600 3388.6725
31.9800 3415.3425
32.0000 3443.8650
32.0200 3651.6250
32.0400 3849.8900
32.0600 4475.3800
32.0800 5027.9450
32.1000 5699.7600
32.1200 6739.9400
32.1400 8161.3425
32.1600 10015.2325
32.1800 12251.0025
32.2000 12917.6775
32.2200 13513.8675
32.2400 14005.7425
32.2600 13085.1800
32.2800 11970.8350
32.3000 11050.5850
32.3200 9949.0675
32.3400 8302.1350
32.3600 7180.6900
32.3800 6174.9125
32.4000 5801.8800
32.4200 5355.4475
32.4400 4696.7300
32.4600 3966.6400
32.4800 3606.2600
32.5000 3743.1775
32.5200 3586.9325
32.5400 3230.4975
32.5600 3306.0175
32.5800 3205.3150
32.6000 3390.7650
32.6200 3200.1200
32.6400 3106.0550
32.6600 2859.0725
32.6800 2894.0325
32.7000 2698.3350
32.7200 2960.7850
32.7400 3118.1100
32.7600 2754.8100
32.7800 2794.5250
32.8000 2812.8925
32.8200 2779.5975
32.8400 2739.8275
32.8600 2651.0075
32.8800 2614.3250
32.9000 2787.4400
32.9200 2687.7725
32.9400 2746.9675
32.9600 2903.7725
32.9800 2684.4100
33.0000 2993.5450
33.0200 3063.9725
33.0400 2876.6800
33.0600 2758.1350
33.0800 2902.6350
33.1000 2836.3150
33.1200 2719.4750
33.1400 2814.7750
33.1600 2713.5575
33.1800 2697.9300
33.2000 2837.8725
33.2200 2800.0000
33.2400 2805.1850
33.2600 2851.7500
33.2800 2776.8325
33.3000 2721.1700
33.3200 2842.8450
33.3400 2676.3900
33.3600 2684.1225
33.3800 2614.2075
33.4000 2777.0025
33.4200 2773.6675
33.4400 2482.8950
33.4600 2675.0000
33.4800 2663.6425
33.5000 2518.1600
33.5200 2437.0100
33.5400 2504.4575
33.5600 2774.4050
33.5800 2756.1300
33.6000 2635.6825
33.6200 2874.6525
33.6400 2652.8275
33.6600 2799.0000
33.6800 2675.3050
33.7000 2790.4450
33.7200 2657.8250
33.7400 2770.3850
33.7600 2698.9925
33.7800 2671.4650
33.8000 2486.2450
33.8200 2531.9050
33.8400 2517.6800
33.8600 2679.5825
33.8800 2748.0000
33.9000 2571.5100
33.9200 2660.9200
33.9400 2700.7350
33.9600 2566.1825
33.9800 2709.3925
34.0000 2569.0375
34.0200 2623.6150
34.0400 2755.7325
34.0600 2520.2150
34.0800 2420.9750
34.1000 2518.7675
34.1200 2568.3725
34.1400 2600.6950
34.1600 2424.4225
34.1800 2615.0950
34.2000 2561.8775
34.2200 2232.0700
34.2400 2646.5525
34.2600 2554.7300
34.2800 2688.7050
34.3000 2598.4375
34.3200 2546.7325
34.3400 2438.5150
34.3600 2334.9675
34.3800 2392.7900
34.4000 2436.5700
34.4200 2554.4050
34.4400 2400.3950
34.4600 2416.6675
34.4800 2419.7275
34.5000 2555.5950
34.5200 2425.8125
34.5400 2472.0350
34.5600 2753.7100
34.5800 2492.7525
34.6000 2557.9525
34.6200 2534.2750
34.6400 2596.4050
34.6600 2326.4025
34.6800 2442.6700
34.7000 2534.0750
34.7200 2606.4950
34.7400 2400.2600
34.7600 2433.8350
34.7800 2508.6625
34.8000 2566.0175
34.8200 2425.0300
34.8400 2433.1275
34.8600 2350.0000
34.8800 2350.0650
34.9000 2533.2050
34.9200 2366.9600
34.9400 2798.7800
34.9600 2384.9450
34.9800 2540.8875
35.0000 2748.7550
35.0200 2261.7875
35.0400 2407.1225
35.0600 2507.4200
35.0800 2533.0800
35.1000 2475.6550
35.1200 2442.0750
35.1400 2606.1125
35.1600 2419.4225
35.1800 2474.1000
35.2000 2417.6275
35.2200 2310.2300
35.2400 2283.7975
35.2600 2691.8300
35.2800 2740.8050
35.3000 2399.2600
35.3200 2790.7150
35.3400 3019.6500
35.3600 2968.1150
35.3800 3405.0275
35.4000 3132.8475
35.4200 3060.1950
35.4400 3074.5175
35.4600 3212.4125
35.4800 3321.6350
35.5000 3058.8250
35.5200 2848.5700
35.5400 3308.4850
35.5600 3043.6000
35.5800 2607.6700
35.6000 2792.2350
35.6200 2703.8300
35.6400 2820.0825
35.6600 2864.9850
35.6800 2826.7250
35.7000 2936.7175
35.7200 3132.9750
35.7400 3515.9100
35.7600 3342.4350
35.7800 3126.7500
35.8000 3727.8100
35.8200 3837.6175
35.8400 4467.3350
35.8600 5749.9850
35.8800 6172.2900
35.9000 8204.6975
35.9200 10366.9550
35.9400 13460.9175
35.9600 15718.5375
35.9800 17154.3200
36.0000 17186.2225
36.0200 16830.3900
36.0400 15821.1575
36.0600 14756.5750
36.0800 13683.1750
36.1000 11547.2000
36.1200 9887.1675
36.1400 7944.3300
36.1600 6843.6750
36.1800 6152.9600
36.2000 4873.3700
36.2200 4488.5050
36.2400 4327.1625
36.2600 4370.8600
36.2800 3872.3300
36.3000 3980.1075
36.3200 3968.5175
36.3400 4367.4925
36.3600 4346.1025
36.3800 4618.5575
36.4000 4226.7825
36.4200 4253.0650
36.4400 4043.6775
36.4600 3833.5500
36.4800 3678.9725
36.5000 3361.0150
36.5200 3173.0425
36.5400 3043.9650
36.5600 2568.7400
36.5800 2494.5675
36.6000 2529.6650
36.6200 2411.8725
36.6400 2453.0825
36.6600 2344.7125
36.6800 2408.9975
36.7000 2477.1325
36.7200 2339.8850
36.7400 2521.0825
36.7600 2353.3325
36.7800 2431.1600
36.8000 2080.8550
36.8200 2071.7025
36.8400 2450.0225
36.8600 2132.0400
36.8800 2316.1875
36.9000 2364.0950
36.9200 2336.7975
36.9400 2430.3050
36.9600 2344.8000
36.9800 2117.4850
37.0000 2121.4050
37.0200 2288.3875
37.0400 2056.1050
37.0600 2047.2300
37.0800 2020.3900
37.1000 2290.2475
37.1200 2302.8425
37.1400 2130.3100
37.1600 2299.9450
37.1800 2155.6850
37.2000 2111.2725
37.2200 2196.4775
37.2400 2002.8900
37.2600 2106.9250
37.2800 2227.4950
37.3000 2073.4675
37.3200 2174.1850
37.3400 2147.8850
37.3600 2148.9550
37.3800 2339.3000
37.4000 2199.3925
37.4200 2087.8225
37.4400 2082.2575
37.4600 2199.3125
37.4800 2194.9450
37.5000 2220.5975
37.5200 2008.2600
37.5400 2054.3825
37.5600 2045.0400
37.5800 2048.8675
37.6000 2193.8550
37.6200 2180.7425
37.6400 2361.5975
37.6600 2327.1475
37.6800 2259.3800
37.7000 2342.9900
37.7200 2301.1725
37.7400 2384.4500
37.7600 2621.0075
37.7800 2779.3975
37.8000 2935.1550
37.8200 3249.6625
37.8400 3952.9900
37.8600 4137.5650
37.8800 4440.3625
37.9000 4668.5200
37.9200 4403.2150
37.9400 4561.7525
37.9600 4275.6725
37.9800 4146.2400
38.0000 3971.5300
38.0200 3400.5750
38.0400 3082.4000
38.0600 2943.5050
38.0800 2946.0125
38.1000 2572.2175
38.1200 2395.1775
38.1400 2514.6100
38.1600 2395.2400
38.1800 2408.4575
38.2000 2437.5375
38.2200 2219.2850
38.2400 2133.3500
38.2600 2062.5950
38.2800 2119.2625
38.3000 2133.3325
38.3200 2015.8475
38.3400 1922.6350
38.3600 1997.9750
38.3800 2216.4150
38.4000 1921.2025
38.4200 2028.6875
38.4400 1977.4225
38.4600 2136.6225
38.4800 2250.3450
38.5000 2006.6700
38.5200 2175.5350
38.5400 2225.0000
38.5600 2088.6175
38.5800 2071.9575
38.6000 2143.0400
38.6200 2219.5000
38.6400 2111.1350
38.6600 2151.1475
38.6800 2132.7975
38.7000 2003.2075
38.7200 2076.3800
38.7400 2201.2675
38.7600 2204.7700
38.7800 2092.2225
38.8000 2127.2250
38.8200 1987.0800
38.8400 2017.1375
38.8600 2013.2150
38.8800 1941.3475
38.9000 1878.1625
38.9200 1940.1875
38.9400 1965.0100
38.9600 1973.3350
38.9800 1961.6775
39.0000 1991.6025
39.0200 2026.5875
39.0400 1947.0225
39.0600 2024.4775
39.0800 2096.3700
39.1000 1949.5250
39.1200 1947.9925
39.1400 1898.9125
39.1600 1896.5225
39.1800 1946.1125
39.2000 2030.7175
39.2200 2050.0000
39.2400 2050.0000
39.2600 2063.1175
39.2800 1988.0550
39.3000 1960.1225
39.3200 2069.4525
39.3400 1962.8875
39.3600 1911.9550
39.3800 2025.5975
39.4000 2064.8400
39.4200 2060.1675
39.4400 1980.4175
39.4600 1997.2475
39.4800 1839.8925
39.5000 1843.4375
39.5200 1690.2675
39.5400 1828.9175
39.5600 1941.3800
39.5800 1874.5800
39.6000 1843.5650
39.6200 1931.6625
39.6400 1913.3850
39.6600 1938.4850
39.6800 1962.8125
39.7000 2120.2600
39.7200 2045.2075
39.7400 2078.5750
39.7600 2138.2700
39.7800 2130.8850
39.8000 2023.1725
39.8200 1940.8100
39.8400 1797.9975
39.8600 1802.7350
39.8800 1753.3050
39.9000 1828.2700
39.9200 1902.5875
39.9400 1859.8325
39.9600 1715.5075
39.9800 1807.3225
40.0000 1887.7650
40.0200 1918.8600
40.0400 2019.2025
40.0600 1849.2600
40.0800 1726.9375
40.1000 1821.0000
40.1200 1883.3425
40.1400 2060.2925
40.1600 1973.1800
40.1800 1893.8425
40.2000 1827.3100
40.2200 1914.0375
40.2400 2018.3200
40.2600 1849.3400
40.2800 1901.0800
40.3000 2015.9525
40.3200 1911.8125
40.3400 1922.2575
40.3600 1886.1375
40.3800 2008.4175
40.4000 1953.6750
40.4200 2027.3575
40.4400 1949.9550
40.4600 1865.3825
40.4800 1923.5500
40.5000 1950.0000
40.5200 1937.7675
40.5400 1866.1350
40.5600 1945.4050
40.5800 2026.0025
40.6000 2047.7550
40.6200 2037.8350
40.6400 1960.4275
40.6600 1860.5075
40.6800 1930.3275
40.7000 2045.3875
40.7200 1808.8475
40.7400 1998.3625
40.7600 1981.5850
40.7800 1975.5375
40.8000 1919.3975
40.8200 1903.6975
40.8400 1878.2875
40.8600 1890.6775
40.8800 1929.9800
40.9000 1803.9075
40.9200 1953.4225
40.9400 1985.5225
40.9600 1883.0875
40.9800 2088.5375
41.0000 2099.9375
41.0200 1983.3600
41.0400 2045.1025
41.0600 2029.8950
41.0800 1907.5050
41.1000 1925.9125
41.1200 1950.0000
41.1400 2109.6150
41.1600 2228.1475
41.1800 2067.1350
41.2000 1850.2475
41.2200 1885.8425
41.2400 2001.4350
41.2600 2015.7125
41.2800 1926.1975
41.3000 2020.6000
41.3200 2022.3125
41.3400 2005.8475
41.3600 2002.4925
41.3800 1988.3300
41.4000 2012.4775
41.4200 2013.3550
41.4400 1857.1075
41.4600 1942.7300
41.4800 1799.3950
41.5000 1783.7025
41.5200 1845.6225
41.5400 1875.6875
41.5600 1877.5550
41.5800 1875.0000
41.6000 1857.7000
41.6200 1982.4875
41.6400 1955.3550
41.6600 1922.4150
41.6800 1844.6150
41.7000 1808.3325
41.7200 1785.4150
41.7400 1940.9775
41.7600 1993.7975
41.7800 1874.8200
41.8000 1785.0650
41.8200 1920.5400
41.8400 1963.2025
41.8600 1802.1425
41.8800 1733.3325
41.9000 1835.4800
41.9200 1934.3525
41.9400 1822.4275
41.9600 1848.8400
41.9800 1982.0775
42.0000 1895.1725
42.0200 1974.3025
42.0400 2030.4000
42.0600 1957.4775
42.0800 1829.4450
42.1000 1800.1775
42.1200 1982.2125
42.1400 1898.5725
42.1600 1710.3200
42.1800 1814.8900
42.2000 1969.8625
42.2200 1946.9575
42.2400 1972.4050
42.2600 1899.7775
42.2800 1799.9425
42.3000 1841.6750
42.3200 1880.5500
42.3400 1728.0850
42.3600 1760.7750
42.3800 1954.9925
42.4000 1991.8375
42.4200 1875.6125
42.4400 1836.0325
42.4600 1803.0975
42.4800 1794.3425
42.5000 1882.4775
42.5200 1831.6225
42.5400 2035.7425
42.5600 1881.6300
42.5800 1826.4225
42.6000 1935.1725
42.6200 1846.4475
42.6400 1859.7575
42.6600 1894.5475
42.6800 1804.5050
42.7000 1801.8700
42.7200 1738.0175
42.7400 1729.6825
42.7600 1853.0800
42.7800 1962.5300
42.8000 1948.3525
42.8200 1908.7750
42.8400 1921.6125
42.8600 1819.9825
42.8800 1893.1375
42.9000 1939.7325
42.9200 1806.6150
42.9400 1833.0525
42.9600 1829.6300
42.9800 1805.3650
43.0000 1872.6450
43.0200 1865.5025
43.0400 1772.1350
43.0600 1947.0600
43.0800 1906.5325
43.1000 1875.3225
43.1200 1956.2775
43.1400 2004.6200
43.1600 1952.8700
43.1800 1911.3550
43.2000 1818.1375
43.2200 1819.6700
43.2400 1934.7225
43.2600 1866.9575
43.2800 1889.8375
43.3000 1809.6850
43.3200 1828.2675
43.3400 1957.0975
43.3600 2026.3175
43.3800 2031.1500
43.4000 1993.4800
43.4200 1875.2875
43.4400 1863.8525
43.4600 1933.5675
43.4800 1832.7525
43.5000 1742.6500
43.5200 1863.8900
43.5400 1962.5350
43.5600 2063.6050
43.5800 1991.7000
43.6000 1937.4750
43.6200 1939.6075
43.6400 1860.6475
43.6600 1967.0825
43.6800 2068.6975
43.7000 2038.7625
43.7200 1985.6375
43.7400 1971.8325
43.7600 1944.0300
43.7800 1852.8050
43.8000 1947.4325
43.8200 1842.9000
43.8400 1858.6900
43.8600 1797.8300
43.8800 1764.7850
43.9000 1846.1450
43.9200 1987.6900
43.9400 1986.6900
43.9600 1829.1900
43.9800 1937.1025
44.0000 1886.7075
44.0200 1931.1775
44.0400 1938.4150
44.0600 1995.2800
44.0800 1883.6550
44.1000 1979.9800
44.1200 2157.2600
44.1400 2081.9450
44.1600 2239.5125
44.1800 2342.8550
44.2000 2432.9375
44.2200 2624.4950
44.2400 2982.5675
44.2600 3358.2300
44.2800 3730.1225
44.3000 4264.0250
44.3200 4709.4225
44.3400 4836.6450
44.3600 4963.8000
44.3800 4739.1700
44.4000 4478.2375
44.4200 4261.5150
44.4400 4101.6700
44.4600 3840.2300
44.4800 3633.4275
44.5000 3280.8925
44.5200 2907.2575
44.5400 2725.3450
44.5600 2471.1250
44.5800 2407.8550
44.6000 2244.8950
44.6200 2209.1025
44.6400 2090.0975
44.6600 2037.5400
44.6800 2017.4775
44.7000 1966.6675
44.7200 1848.1750
44.7400 1845.5925
44.7600 1949.2850
44.7800 1909.4725
44.8000 1868.1725
44.8200 1845.5075
44.8400 1859.3775
44.8600 1898.0550
44.8800 1864.2100
44.9000 1862.7225
44.9200 1907.8050
44.9400 1866.3225
44.9600 1883.6275
44.9800 1920.1175
45.0000 1848.3850
45.0200 1936.4450
45.0400 1901.8750
45.0600 1881.3050
45.0800 1884.7275
45.1000 1898.5650
45.1200 1812.0250
45.1400 1749.2400
45.1600 1786.0425
45.1800 1901.6400
45.2000 1931.4775
45.2200 1803.3625
45.2400 1815.4075
45.2600 1850.8800
45.2800 1780.3150
45.3000 1813.9050
45.3200 1871.4775
45.3400 1778.8425
45.3600 1818.8225
45.3800 1688.8025
45.4000 1658.0300
45.4200 1716.4550
45.4400 1753.9125
45.4600 1675.6075
45.4800 1683.7225
45.5000 1772.6625
45.5200 1840.6050
45.5400 1845.1825
45.5600 1821.4325
45.5800 1791.6725
45.6000 1838.0275
45.6200 1910.6825
45.6400 1877.5000
45.6600 1841.6675
45.6800 1827.4400
45.7000 1755.0650
45.7200 1840.9125
45.7400 1903.8175
45.7600 1945.9125
45.7800 1929.1425
45.8000 1879.7200
45.8200 1977.6650
45.8400 1984.0200
45.8600 1971.0075
45.8800 1891.7675
45.9000 1643.7600
45.9200 1648.2250
45.9400 1872.0700
45.9600 1844.6900
45.9800 1782.8150
46.0000 1817.7025
46.0200 1750.1075
46.0400 1757.1500
46.0600 1836.3775
46.0800 1788.2775
46.1000 1686.6625
46.1200 1701.3000
46.1400 1769.6275
46.1600 1782.3525
46.1800 1830.8400
46.2000 1772.7025
46.2200 1747.4250
46.2400 1800.9525
46.2600 1771.2150
46.2800 1741.6675
46.3000 1732.4000
46.3200 1817.5975
46.3400 1817.6400
46.3600 1684.3600
46.3800 1671.2000
46.4000 1671.3975
46.4200 1655.5075
46.4400 1772.7075
46.4600 1890.5850
46.4800 1838.3975
46.5000 1724.3900
46.5200 1655.7475
46.5400 1670.0900
46.5600 1709.1825
46.5800 1725.8425
46.6000 1765.4300
46.6200 1736.6800
46.6400 1691.6675
46.6600 1755.7300
46.6800 1726.0200
46.7000 1717.7425
46.7200 1625.0900
46.7400 1681.7625
46.7600 1692.7325
46.7800 1537.7525
46.8000 1627.5425
46.8200 1792.5100
46.8400 1741.5850
46.8600 1640.1475
46.8800 1593.1975
46.9000 1548.5050
46.9200 1569.6350
46.9400 1627.2075
46.9600 1640.9350
46.9800 1674.0950
47.0000 1685.7025
47.0200 1635.0025
47.0400 1644.5000
47.0600 1675.0000
47.0800 1747.2450
47.1000 1844.4325
47.1200 1807.3525
47.1400 1745.4925
47.1600 1723.6500
47.1800 1753.3500
47.2000 1769.1725
47.2200 1705.0350
47.2400 1693.6300
47.2600 1613.3700
47.2800 1664.1450
47.3000 1760.9025
47.3200 1674.4150
47.3400 1656.9950
47.3600 1736.4500
47.3800 1707.8625
47.4000 1632.1075
47.4200 1710.5525
47.4400 1697.8325
47.4600 1674.7225
47.4800 1666.9750
47.5000 1625.5875
47.5200 1624.4175
47.5400 1674.5975
47.5600 1662.6475
47.5800 1675.1025
47.6000 1715.5375
47.6200 1682.2125
47.6400 1693.3325
47.6600 1685.5725
47.6800 1636.1350
47.7000 1638.8525
47.7200 1609.5475
47.7400 1655.3225
47.7600 1702.3200
47.7800 1710.4275
47.8000 1688.5525
47.8200 1681.4825
47.8400 1716.6675
47.8600 1597.3400
47.8800 1615.3525
47.9000 1782.3975
47.9200 1824.5075
47.9400 1671.1075
47.9600 1537.2575
47.9800 1621.4675
48.0000 1611.9075
48.0200 1656.6050
48.0400 1797.4700
48.0600 1767.8200
48.0800 1685.8925
48.1000 1623.1775
48.1200 1543.3500
48.1400 1530.7325
48.1600 1610.9950
48.1800 1614.4700
48.2000 1610.0750
48.2200 1632.9025
48.2400 1664.4250
48.2600 1726.2725
48.2800 1662.4650
48.3000 1543.9600
48.3200 1643.8975
48.3400 1583.0800
48.3600 1469.0975
48.3800 1625.8525
48.4000 1633.3225
48.4200 1589.2750
48.4400 1603.1900
48.4600 1583.3325
48.4800 1635.6350
48.5000 1670.2625
48.5200 1649.6225
48.5400 1589.4275
48.5600 1572.1275
48.5800 1586.9500
48.6000 1540.2150
48.6200 1586.5675
48.6400 1675.7125
48.6600 1630.8650
48.6800 1583.6825
48.7000 1609.0250
48.7200 1672.7200
48.7400 1621.2650
48.7600 1641.7050
48.7800 1754.6675
48.8000 1727.6825
48.8200 1670.0150
48.8400 1680.3000
48.8600 1552.5600
48.8800 1525.1225
48.9000 1611.7125
48.9200 1518.1850
48.9400 1583.9500
48.9600 1604.6650
48.9800 1599.0125
49.0000 1609.9525
49.0200 1627.9675
49.0400 1691.0775
49.0600 1636.1900
49.0800 1578.4450
49.1000 1441.9800
49.1200 1367.7975
49.1400 1443.0650
49.1600 1522.0800
49.1800 1614.2850
49.2000 1718.2975
49.2200 1715.0525
49.2400 1705.3650
49.2600 1720.1750
49.2800 1721.4850
49.3000 1629.9725
49.3200 1602.3050
49.3400 1713.6400
49.3600 1702.7875
49.3800 1666.9150
49.4000 1726.4750
49.4200 1710.6750
49.4400 1658.5750
49.4600 1662.3800
49.4800 1628.3400
49.5000 1651.4025
49.5200 1712.8475
49.5400 1789.2175
49.5600 1760.1175
49.5800 1627.9325
49.6000 1664.6125
49.6200 1878.5200
49.6400 1944.2000
49.6600 1947.4500
49.6800 2004.0600
49.7000 2153.8025
49.7200 2321.3550
49.7400 2427.0700
49.7600 2363.1850
49.7800 2182.3200
49.8000 2086.1950
49.8200 2075.9925
49.8400 2210.4950
49.8600 2172.0800
49.8800 2092.6300
49.9000 2090.7125
49.9200 1930.6925
49.9400 1833.7075
49.9600 1824.4450
49.9800 1761.6775
50.0000 1929.3450
50.0200 2005.8250
50.0400 1883.1550
50.0600 1853.7275
50.0800 1790.7975
50.1000 1745.7475
50.1200 1690.6450
50.1400 1730.9350
50.1600 1748.6650
50.1800 1751.3200
50.2000 1778.4325
50.2200 1767.1525
50.2400 1766.1875
50.2600 1703.4550
50.2800 1641.1975
50.3000 1718.5300
50.3200 1769.9875
50.3400 1661.3600
50.3600 1744.2250
50.3800 1760.3400
50.4000 1819.7625
50.4200 1906.8725
50.4400 1901.3000
50.4600 1932.6175
50.4800 1950.9900
50.5000 2118.4900
50.5200 2335.1375
50.5400 2649.2000
50.5600 3061.7325
50.5800 3605.3850
50.6000 4161.9325
50.6200 4484.9175
50.6400 4422.5175
50.6600 4224.3525
50.6800 4081.7950
50.7000 3881.8100
50.7200 3660.6775
50.7400 3588.1850
50.7600 3451.5175
50.7800 3181.9900
50.8000 3066.3050
50.8200 2961.3625
50.8400 2693.1675
50.8600 2339.3175
50.8800 2196.1250
50.9000 2165.9750
50.9200 2027.9675
50.9400 1912.1050
50.9600 1900.2250
50.9800 1861.7800
51.0000 1791.4475
51.0200 1783.4425
51.0400 1854.9750
51.0600 1819.6025
51.0800 1644.8275
51.1000 1596.2000
51.1200 1641.8750
51.1400 1679.4250
51.1600 1754.8325
51.1800 1745.0725
51.2000 1573.6925
51.2200 1626.8950
51.2400 1711.6600
51.2600 1768.1375
51.2800 1777.8550
51.3000 1679.3100
51.3200 1691.6675
51.3400 1721.1650
51.3600 1682.5800
51.3800 1654.5875
51.4000 1641.1100
51.4200 1604.3050
51.4400 1633.5150
51.4600 1603.6700
51.4800 1570.9675
51.5000 1646.5025
51.5200 1725.1775
51.5400 1737.4550
51.5600 1619.6575
51.5800 1474.6550
51.6000 1572.1650
51.6200 1683.1625
51.6400 1632.9950
51.6600 1532.6600
51.6800 1496.1250
51.7000 1482.9175
51.7200 1450.0825
51.7400 1500.4100
51.7600 1625.8150
51.7800 1641.0175
51.8000 1604.4475
51.8200 1587.0600
51.8400 1554.2850
51.8600 1558.2550
51.8800 1621.5025
51.9000 1582.3150
51.9200 1517.0575
51.9400 1667.6750
51.9600 1665.6625
51.9800 1638.2300
52.0000 1716.6675
52.0200 1628.3675
52.0400 1600.5300
52.0600 1536.4075
52.0800 1492.3425
52.1000 1566.6675
52.1200 1638.1325
52.1400 1632.6650
52.1600 1566.7400
52.1800 1600.2200
52.2000 1608.1875
52.2200 1600.0725
52.2400 1599.9275
52.2600 1583.2600
52.2800 1633.8400
52.3000 1691.6675
52.3200 1590.8025
52.3400 1546.3000
52.3600 1604.2025
52.3800 1637.7500
52.4000 1553.2025
52.4200 1508.9025
52.4400 1583.4050
52.4600 1520.2300
52.4800 1487.8175
52.5000 1638.4550
52.5200 1737.3950
52.5400 1670.3750
52.5600 1562.0425
52.5800 1583.9675
52.6000 1691.9475
52.6200 1687.1850
52.6400 1675.2100
52.6600 1683.1925
52.6800 1649.8600
52.7000 1540.8950
52.7200 1454.2025
52.7400 1580.1825
52.7600 1695.7975
52.7800 1611.8350
52.8000 1524.9300
52.8200 1659.5250
52.8400 1728.5700
52.8600 1683.5450
52.8800 1641.1050
52.9000 1516.1750
52.9200 1479.3425
52.9400 1529.4125
52.9600 1600.3525
52.9800 1595.4450
53.0000 1575.2125
53.0200 1545.3725
53.0400 1479.0600
53.0600 1550.7100
53.0800 1553.4925
53.1000 1567.4500
53.1200 1645.7275
53.1400 1574.5000
53.1600 1609.1200
53.1800 1594.9350
53.2000 1571.5175
53.2200 1578.5550
53.2400 1558.7675
53.2600 1599.9275
53.2800 1574.8550
53.3000 1655.0050
53.3200 1737.3900
53.3400 1691.3750
53.3600 1616.3000
53.3800 1625.4425
53.4000 1641.3700
53.4200 1616.7400
53.4400 1692.2600
53.4600 1741.5175
53.4800 1771.2450
53.5000 1711.5625
53.5200 1620.9475
53.5400 1553.4500
53.5600 1584.3200
53.5800 1573.9350
53.6000 1521.4050
53.6200 1696.8675
53.6400 1841.9750
53.6600 1757.2525
53.6800 1835.1150
53.7000 2037.6175
53.7200 2264.4900
53.7400 2639.0275
53.7600 2900.9450
53.7800 3079.9175
53.8000 3057.3825
53.8200 2655.4675
53.8400 2408.8125
53.8600 2504.6075
53.8800 2587.8625
53.9000 2456.7150
53.9200 2464.1650
53.9400 2528.1475
53.9600 2345.0550
53.9800 2165.6800
54.0000 1995.1300
54.0200 1887.1275
54.0400 1879.4575
54.0600 1942.0025
54.0800 1924.4950
54.1000 1803.4500
54.1200 1720.7050
54.1400 1670.4500
54.1600 1608.0775
54.1800 1608.5900
54.2000 1696.4800
54.2200 1648.8725
54.2400 1689.0250
54.2600 1795.4400
54.2800 1594.1200
54.3000 1496.4950
54.3200 1558.3325
54.3400 1663.6125
54.3600 1724.5525
54.3800 1763.3525
54.4000 1858.5150
54.4200 1799.1850
54.4400 1851.3650
54.4600 1798.0800
54.4800 1709.2525
54.5000 1838.0075
54.5200 1938.1025
54.5400 1861.0575
54.5600 1771.2550
54.5800 1837.8275
54.6000 1824.5275
54.6200 1766.4775
54.6400 1724.7150
54.6600 1683.1425
54.6800 1637.1650
54.7000 1599.9025
54.7200 1625.3875
54.7400 1599.3200
54.7600 1604.8975
54.7800 1683.5300
54.8000 1607.2500
54.8200 1638.9325
54.8400 1720.3875
54.8600 1742.3650
54.8800 1703.0150
54.9000 1583.0325
54.9200 1646.8925
54.9400 1729.1150
54.9600 1585.8225
54.9800 1542.7900
55.0000 1608.0250
55.0200 1642.3875
55.0400 1607.1975
55.0600 1512.4475
55.0800 1550.5200
55.1000 1524.1625
55.1200 1559.5925
55.1400 1599.2625
55.1600 1533.2275
55.1800 1482.8025
55.2000 1517.6250
55.2200 1642.3075
55.2400 1569.2775
55.2600 1525.9700
55.2800 1616.8825
55.3000 1595.3450
55.3200 1562.5550
55.3400 1537.1175
55.3600 1601.2075
55.3800 1716.9975
55.4000 1699.4475
55.4200 1578.1125
55.4400 1554.8900
55.4600 1566.1075
55.4800 1491.2200
55.5000 1471.0025
55.5200 1508.6725
55.5400 1491.1025
55.5600 1530.2450
55.5800 1621.0050
55.6000 1772.7175
55.6200 1781.6175
55.6400 1607.6450
55.6600 1685.0600
55.6800 1766.0900
55.7000 1712.3275
55.7200 1771.8200
55.7400 1723.3700
55.7600 1697.0600
55.7800 1812.9100
55.8000 1761.3850
55.8200 1894.6100
55.8400 2129.5800
55.8600 2187.9150
55.8800 2292.7350
55.9000 2535.7125
55.9200 2767.6200
55.9400 2824.8800
55.9600 2740.5875
55.9800 2569.4525
56.0000 2420.0500
56.0200 2379.3475
56.0400 2442.3925
56.0600 2436.7125
56.0800 2269.1950
56.1000 2204.8350
56.1200 2131.6275
56.1400 1932.1125
56.1600 1816.1775
56.1800 1770.6500
56.2000 1745.6500
56.2200 1729.1050
56.2400 1792.6525
56.2600 1765.3075
56.2800 1632.7150
56.3000 1587.4375
56.3200 1600.2475
56.3400 1540.5475
56.3600 1644.2800
56.3800 1842.0400
56.4000 1731.3375
56.4200 1578.8550
56.4400 1575.2500
56.4600 1578.9775
56.4800 1600.5025
56.5000 1514.9075
56.5200 1471.9025
56.5400 1571.2750
56.5600 1650.7550
56.5800 1670.3925
56.6000 1565.5300
56.6200 1521.2750
56.6400 1537.3100
56.6600 1486.9300
56.6800 1378.0900
56.7000 1380.2450
56.7200 1466.9200
56.7400 1496.0250
56.7600 1529.4850
56.7800 1566.9225
56.8000 1621.4075
56.8200 1624.4900
56.8400 1570.5150
56.8600 1511.9250
56.8800 1466.5400
56.9000 1513.3300
56.9200 1549.7450
56.9400 1457.1825
56.9600 1425.6400
56.9800 1470.8975
57.0000 1500.3850
57.0200 1482.6925
57.0400 1445.8975
57.0600 1483.8450
57.0800 1461.6675
57.1000 1492.9500
57.1200 1625.7700
57.1400 1708.8475
57.1600 1724.7425
57.1800 1695.6400
57.2000 1628.3325
57.2200 1583.4625
57.2400 1625.5150
57.2600 1700.6425
57.2800 1661.2800
57.3000 1617.1800
57.3200 1582.3050
57.3400 1618.2075
57.3600 1665.8950
57.3800 1565.8950
57.4000 1613.9775
57.4200 1666.0250
57.4400 1696.9250
57.4600 1686.2800
57.4800 1591.4100
57.5000 1727.3100
57.5200 1684.6125
57.5400 1542.3075
57.5600 1663.7175
57.5800 1669.7425
57.6000 1490.0000
57.6200 1527.1775
57.6400 1717.4350
57.6600 1682.0525
57.6800 1604.2300
57.7000 1625.2550
57.7200 1573.9775
57.7400 1571.7925
57.7600 1620.6425
57.7800 1684.4825
57.8000 1724.4900
57.8200 1615.5175
57.8400 1622.0450
57.8600 1645.0050
57.8800 1591.6675
57.9000 1672.0425
57.9200 1745.7700
57.9400 1678.2125
57.9600 1642.0475
57.9800 1687.8175
58.0000 1708.3325
58.0200 1721.0225
58.0400 1712.1825
58.0600 1619.7575
58.0800 1592.3000
58.1000 1624.8725
58.1200 1625.1275
58.1400 1679.8625
58.1600 1602.3375
58.1800 1660.9825
58.2000 1896.7775
58.2200 2000.6300
58.2400 2045.8950
58.2600 2088.0650
58.2800 2158.8350
58.3000 2288.9425
58.3200 2556.7375
58.3400 2839.1925
58.3600 3254.5050
58.3800 3930.6275
58.4000 4604.4975
58.4200 4976.1225
58.4400 5075.3750
58.4600 4863.1775
58.4800 4536.0675
58.5000 4255.5975
58.5200 4168.0325
58.5400 4300.6200
58.5600 4299.3800
58.5800 3987.7025
58.6000 3809.5700
58.6200 3743.6700
58.6400 3477.3750
58.6600 3134.2300
58.6800 2806.7300
58.7000 2564.6975
58.7200 2369.9100
58.7400 2189.9450
58.7600 1927.0175
58.7800 1817.1575
58.8000 1883.8225
58.8200 1874.3875
58.8400 1841.7900
58.8600 1888.0500
58.8800 1815.0800
58.9000 1691.4225
58.9200 1598.9050
58.9400 1567.2750
58.9600 1621.0150
58.9800 1671.3800
59.0000 1670.2875
59.0200 1612.1975
59.0400 1642.3925
59.0600 1645.1700
59.0800 1608.4550
59.1000 1633.5750
59.1200 1742.9925
59.1400 1655.8075
59.1600 1639.7225
59.1800 1702.9075
59.2000 1642.0275
59.2200 1679.3475
59.2400 1695.8925
59.2600 1683.0950
59.2800 1725.8350
59.3000 1694.5825
59.3200 1709.7625
59.3400 1732.2625
59.3600 1632.9775
59.3800 1612.5600
59.4000 1701.1850
59.4200 1779.1075
59.4400 1804.5800
59.4600 1905.1725
59.4800 1966.5475
59.5000 1882.2725
59.5200 1939.3275
59.5400 2079.3425
59.5600 2129.6950
59.5800 2153.9900
59.6000 2276.8775
59.6200 2497.0650
59.6400 2786.1450
59.6600 3253.7450
59.6800 3808.2000
59.7000 4484.5975
59.7200 5445.4925
59.7400 6891.3475
59.7600 8269.6625
59.7800 8567.9825
59.8000 7766.7475
59.8200 7052.3675
59.8400 6739.1150
59.8600 6385.1250
59.8800 6051.9075
59.9000 5912.7900
59.9200 6102.3125
59.9400 6008.9775
59.9600 5500.6475
59.9800 5072.5775
60.0000 4388.8625
60.0200 3680.4550
60.0400 3449.6550
60.0600 3218.0175
60.0800 2873.0475
60.1000 2678.4200
60.1200 2591.2075
60.1400 2427.3900
60.1600 2266.2075
60.1800 2195.3175
60.2000 2044.2900
60.2200 1891.0950
60.2400 1926.0275
60.2600 1894.4075
60.2800 1783.2200
60.3000 1817.2375
60.3200 1862.5575
60.3400 1849.7725
60.3600 1706.6250
60.3800 1587.5575
60.4000 1595.8900
60.4200 1654.9050
60.4400 1649.2050
60.4600 1756.3800
60.4800 1823.7525
60.5000 1669.9825
60.5200 1642.1200
60.5400 1535.6300
60.5600 1497.1375
60.5800 1642.3475
60.6000 1687.4425
60.6200 1662.2175
60.6400 1721.9100
60.6600 1715.5350
60.6800 1654.4500
60.7000 1708.7850
60.7200 1695.2100
60.7400 1599.3225
60.7600 1566.8925
60.7800 1566.4400
60.8000 1676.6975
60.8200 1791.5525
60.8400 1779.1100
60.8600 1753.8850
60.8800 1707.9950
60.9000 1632.6550
60.9200 1427.0725
60.9400 1405.9200
60.9600 1638.9150
60.9800 1631.8625
61.0000 1554.5625
61.0200 1591.7800
61.0400 1549.3200
61.0600 1516.8925
61.0800 1482.6525
61.1000 1526.2475
61.1200 1684.2400
61.1400 1690.8725
61.1600 1536.1950
61.1800 1479.6775
61.2000 1478.6550
61.2200 1521.9150
61.2400 1545.0925
61.2600 1474.7725
61.2800 1492.1225
61.3000 1575.6850
61.3200 1633.4475
61.3400 1683.9050
61.3600 1610.9575
61.3800 1516.8950
61.4000 1558.6775
61.4200 1549.5425
61.4400 1558.9075
61.4600 1536.6375
61.4800 1415.8625
61.5000 1404.8000
61.5200 1547.1575
61.5400 1590.9750
61.5600 1520.5450
61.5800 1597.1625
61.6000 1636.7475
61.6200 1579.1075
61.6400 1570.7750
61.6600 1507.5200
61.6800 1492.2475
61.7000 1558.6825
61.7200 1524.1825
61.7400 1534.2675
61.7600 1566.1975
61.7800 1520.6575
61.8000 1482.9800
61.8200 1411.8525
61.8400 1480.7575
61.8600 1507.1525
61.8800 1467.2575
61.9000 1482.9775
61.9200 1483.6900
61.9400 1482.9775
61.9600 1509.0475
61.9800 1630.1800
62.0000 1615.4700
62.0200 1600.9575
62.0400 1645.5325
62.0600 1595.4125
62.0800 1570.8925
62.1000 1549.6375
62.1200 1605.3175
62.1400 1577.6500
62.1600 1466.5450
62.1800 1534.4300
62.2000 1549.1450
62.2200 1470.5275
62.2400 1466.9125
62.2600 1470.6475
62.2800 1496.3875
62.3000 1495.2775
62.3200 1492.1625
62.3400 1427.7375
62.3600 1498.2650
62.3800 1556.8325
62.4000 1513.3150
62.4200 1537.0600
62.4400 1504.1025
62.4600 1550.7575
62.4800 1570.3900
62.5000 1503.5950
62.5200 1530.1225
62.5400 1553.5900
62.5600 1554.7450
62.5800 1583.2050
62.6000 1524.2250
62.6200 1508.8525
62.6400 1486.6550
62.6600 1399.4775
62.6800 1502.0925
62.7000 1675.6550
62.7200 1568.5300
62.7400 1454.6300
62.7600 1449.4700
62.7800 1543.6625
62.8000 1607.4000
62.8200 1418.7575
62.8400 1452.5525
62.8600 1578.6950
62.8800 1588.1100
62.9000 1663.1125
62.9200 1551.7800
62.9400 1565.0325
62.9600 1670.0775
62.9800 1680.0625
63.0000 1729.0975
63.0200 1648.7500
63.0400 1676.6750
63.0600 1775.0000
63.0800 1783.4750
63.1000 1795.9050
63.1200 1778.8125
63.1400 1749.8575
63.1600 1567.9025
63.1800 1531.3900
63.2000 1624.4225
63.2200 1646.7750
63.2400 1733.9150
63.2600 1698.8325
63.2800 1586.6950
63.3000 1571.3475
63.3200 1561.8350
63.3400 1474.1100
63.3600 1484.3775
63.3800 1473.8025
63.4000 1416.8175
63.4200 1484.3925
63.4400 1482.2700
63.4600 1382.5700
63.4800 1299.2325
63.5000 1389.8875
63.5200 1605.7900
63.5400 1619.5125
63.5600 1511.7975
63.5800 1445.2850
63.6000 1531.2950
63.6200 1556.7500
63.6400 1428.2925
63.6600 1425.8000
63.6800 1602.5700
63.7000 1673.8700
63.7200 1552.9500
63.7400 1500.1625
63.7600 1555.0675
63.7800 1604.2500
63.8000 1540.3425
63.8200 1445.2500
63.8400 1522.9225
63.8600 1629.2500
63.8800 1722.6075
63.9000 1706.2950
63.9200 1531.7975
63.9400 1424.3150
63.9600 1425.6900
63.9800 1445.5725
64.0000 1497.1400
64.0200 1503.0275
64.0400 1458.5100
64.0600 1534.7500
64.0800 1565.9550
64.1000 1584.4075
64.1200 1577.9975
64.1400 1529.2575
64.1600 1503.5300
64.1800 1526.0975
64.2000 1583.5175
64.2200 1685.3650
64.2400 1715.3650
64.2600 1666.8525
64.2800 1589.7875
64.3000 1508.3325
64.3200 1585.0425
64.3400 1803.2475
64.3600 1830.8375
64.3800 1729.2625
64.4000 1797.2900
64.4200 1879.6550
64.4400 1955.4425
64.4600 2050.9875
64.4800 2360.4250
64.5000 2821.4625
64.5200 3443.3800
64.5400 3990.8350
64.5600 4163.4150
64.5800 4033.5150
64.6000 3648.7175
64.6200 3365.0125
64.6400 3146.2575
64.6600 3055.5275
64.6800 2967.3625
64.7000 3136.6800
64.7200 3228.4375
64.7400 3110.0450
64.7600 3127.9825
64.7800 2980.7350
64.8000 2695.2050
64.8200 2277.1950
64.8400 2118.4300
64.8600 1982.2875
64.8800 1825.8925
64.9000 1909.6800
64.9200 1838.5050
64.9400 1759.2425
64.9600 1701.7675
64.9800 1668.0450
65.0000 1776.6175
65.0200 1820.4850
65.0400 1628.4200
65.0600 1475.4700
65.0800 1555.9425
65.1000 1599.5225
65.1200 1557.6150
65.1400 1507.6100
65.1600 1556.2275
65.1800 1560.6700
65.2000 1564.3400
65.2200 1517.7450
65.2400 1472.4475
65.2600 1537.8750
65.2800 1640.1400
65.3000 1656.3100
65.3200 1531.5500
65.3400 1569.4850
65.3600 1649.7425
65.3800 1555.7400
65.4000 1539.4575
65.4200 1509.7450
65.4400 1515.2725
65.4600 1612.8975
65.4800 1564.7950
65.5000 1473.9250
65.5200 1450.2700
65.5400 1501.3625
65.5600 1610.5250
65.5800 1567.3875
65.6000 1470.9725
65.6200 1595.5725
65.6400 1579.1225
65.6600 1510.0275
65.6800 1454.9225
65.7000 1366.9525
65.7200 1418.1050
65.7400 1415.2200
65.7600 1422.4350
65.7800 1496.8600
65.8000 1486.1725
65.8200 1445.6850
65.8400 1316.5050
65.8600 1273.3875
65.8800 1358.9375
65.9000 1357.7250
65.9200 1397.8225
65.9400 1475.9225
65.9600 1474.0700
65.9800 1424.0650
66.0000 1400.0000
66.0200 1387.0275
66.0400 1383.6500
66.0600 1456.5625
66.0800 1464.7375
66.1000 1481.5925
66.1200 1567.6425
66.1400 1483.4075
66.1600 1327.0250
66.1800 1370.3125
66.2000 1380.3325
66.2200 1347.3425
66.2400 1387.6700
66.2600 1400.3400
66.2800 1373.6325
66.3000 1489.1800
66.3200 1607.6400
66.3400 1509.1925
66.3600 1450.7000
66.3800 1436.2675
66.4000 1430.0525
66.4200 1415.2400
66.4400 1431.1425
66.4600 1448.9150
66.4800 1411.9550
66.5000 1386.9525
66.5200 1405.4550
66.5400 1394.1675
66.5600 1362.6850
66.5800 1453.7475
66.6000 1520.2675
66.6200 1503.9775
66.6400 1430.2800
66.6600 1418.9700
66.6800 1532.0650
66.7000 1482.6400
66.7200 1396.4200
66.7400 1513.0550
66.7600 1573.4175
66.7800 1441.2525
66.8000 1354.3675
66.8200 1423.8575
66.8400 1492.0725
66.8600 1438.8100
66.8800 1374.5900
66.9000 1471.6250
66.9200 1540.4200
66.9400 1446.6550
66.9600 1392.0875
66.9800 1413.1350
67.0000 1433.7600
67.0200 1432.9050
67.0400 1464.4400
67.0600 1372.8800
67.0800 1315.3350
67.1000 1357.8950
67.1200 1284.1900
67.1400 1378.6050
67.1600 1450.8150
67.1800 1347.7525
67.2000 1308.3325
67.2200 1488.4925
67.2400 1553.3000
67.2600 1435.8900
67.2800 1465.5100
67.3000 1437.4725
67.3200 1406.2750
67.3400 1406.4475
67.3600 1361.7875
67.3800 1495.3725
67.4000 1523.6475
67.4200 1433.3325
67.4400 1428.9250
67.4600 1460.2875
67.4800 1412.2425
67.5000 1425.5300
67.5200 1592.7225
67.5400 1714.7500
67.5600 1785.3450
67.5800 1790.1475
67.6000 1735.7175
67.6200 1717.1800
67.6400 1711.7275
67.6600 1691.1475
67.6800 1639.0600
67.7000 1662.0025
67.7200 1707.8050
67.7400 1633.5225
67.7600 1601.6000
67.7800 1598.3900
67.8000 1606.0550
67.8200 1602.2650
67.8400 1623.8375
67.8600 1564.5150
67.8800 1439.4575
67.9000 1390.5550
67.9200 1406.1225
67.9400 1375.5125
67.9600 1436.2350
67.9800 1524.4325
68.0000 1458.7825
68.0200 1475.1475
68.0400 1435.3025
68.0600 1327.7125
68.0800 1326.1700
68.1000 1297.0575
68.1200 1280.6475
68.1400 1358.0375
68.1600 1430.6650
68.1800 1347.2400
68.2000 1325.3750
68.2200 1369.9200
68.2400 1429.9000
68.2600 1402.1725
68.2800 1369.7650
68.3000 1529.2450
68.3200 1458.6125
68.3400 1353.1500
68.3600 1391.6675
68.3800 1436.5200
68.4000 1416.6675
68.4200 1272.3975
68.4400 1151.2500
68.4600 1202.0275
68.4800 1225.5600
68.5000 1282.2525
68.5200 1321.6850
68.5400 1332.8325
68.5600 1411.0150
68.5800 1432.6600
68.6000 1406.9775
68.6200 1360.1150
68.6400 1310.7875
68.6600 1278.1325
68.6800 1284.7200
68.7000 1290.9700
68.7200 1242.6800
68.7400 1181.2200
68.7600 1244.2325
68.7800 1285.0075
68.8000 1339.7800
68.8200 1430.9675
68.8400 1395.6550
68.8600 1359.0625
68.8800 1402.9300
68.9000 1329.0325
68.9200 1323.3300
68.9400 1273.6575
68.9600 1234.0325
68.9800 1260.6200
69.0000 1328.0200
69.0200 1386.3600
69.0400 1311.3125
69.0600 1390.3175
69.0800 1436.2550
69.1000 1269.4500
69.1200 1261.5900
69.1400 1360.6900
69.1600 1355.9625
69.1800 1369.8425
69.2000 1349.7750
69.2200 1349.4450
69.2400 1227.9475
69.2600 1196.0200
69.2800 1233.8300
69.3000 1163.3875
69.3200 1234.0700
69.3400 1440.3550
69.3600 1482.0850
69.3800 1282.0125
69.4000 1195.0350
69.4200 1284.6700
69.4400 1393.0325
69.4600 1469.2325
69.4800 1510.0525
69.5000 1529.6000
69.5200 1537.9350
69.5400 1573.8900
69.5600 1724.3550
69.5800 1889.5125
69.6000 1890.9525
69.6200 1900.7400
69.6400 1872.4425
69.6600 1756.6425
69.6800 1712.9525
69.7000 1702.8000
69.7200 1663.9200
69.7400 1600.0250
69.7600 1626.8450
69.7800 1795.4175
69.8000 1752.6500
69.8200 1697.3025
69.8400 1695.2800
69.8600 1662.9750
69.8800 1513.4300
69.9000 1489.2325
69.9200 1501.5900
69.9400 1463.9525
69.9600 1437.7725
69.9800 1403.6775
70.0000 1395.3425
70.0200 1419.6300
70.0400 1381.0450
70.0600 1296.0075
70.0800 1374.0350
70.1000 1472.3450
70.1200 1352.4825
70.1400 1329.4875
70.1600 1363.5975
70.1800 1425.9225
70.2000 1374.5825
70.2200 1362.9950
70.2400 1373.4250
70.2600 1450.6125
70.2800 1485.3425
70.3000 1343.0450
70.3200 1243.1725
70.3400 1253.2100
70.3600 1237.3675
70.3800 1283.6425
70.4000 1379.3425
70.4200 1342.3650
70.4400 1291.6675
70.4600 1367.1450
70.4800 1358.9200
70.5000 1412.2350
70.5200 1364.0800
70.5400 1313.9475
70.5600 1368.9225
70.5800 1345.4650
70.6000 1316.6675
70.6200 1354.5800
70.6400 1326.4325
70.6600 1307.0550
70.6800 1296.5175
70.7000 1260.7500
70.7200 1373.5725
70.7400 1366.8000
70.7600 1372.5600
70.7800 1409.5275
70.8000 1286.8600
70.8200 1241.7000
70.8400 1323.9025
70.8600 1295.0800
70.8800 1227.3400
70.9000 1178.4425
70.9200 1298.2100
70.9400 1350.9275
70.9600 1404.0675
70.9800 1350.4700
71.0000 1301.4650
71.0200 1352.5150
71.0400 1299.4900
71.0600 1163.5800
71.0800 1191.2775
71.1000 1306.4025
71.1200 1442.6750
71.1400 1338.5900
71.1600 1319.0975
71.1800 1293.9875
71.2000 1269.7050
71.2200 1351.7550
71.2400 1494.3700
71.2600 1439.7400
71.2800 1380.3375
71.3000 1326.1100
71.3200 1358.6225
71.3400 1371.7300
71.3600 1328.4875
71.3800 1358.9425
71.4000 1354.2225
71.4200 1245.9450
71.4400 1246.4875
71.4600 1281.9450
71.4800 1270.1350
71.5000 1378.6125
71.5200 1346.3150
71.5400 1266.6675
71.5600 1398.3350
71.5800 1350.1550
71.6000 1284.1800
71.6200 1352.3075
71.6400 1339.3325
71.6600 1308.3325
71.6800 1264.2750
71.7000 1301.9125
71.7200 1305.8850
71.7400 1304.4300
71.7600 1325.0000
71.7800 1349.5575
71.8000 1332.2650
71.8200 1328.0050
71.8400 1282.6150
71.8600 1379.5450
71.8800 1470.0725
71.9000 1402.5675
71.9200 1407.6725
71.9400 1352.7975
71.9600 1360.8325
71.9800 1339.1200
72.0000 1291.6675
72.0200 1222.3625
72.0400 1199.7675
72.0600 1177.0100
72.0800 1278.9675
72.1000 1277.3225
72.1200 1236.5350
72.1400 1339.4650
72.1600 1325.3950
72.1800 1419.3325
72.2000 1506.7050
72.2200 1385.3725
72.2400 1228.5400
72.2600 1354.6600
72.2800 1415.0725
72.3000 1384.9950
72.3200 1401.6675
72.3400 1378.3075
72.3600 1313.2650
72.3800 1273.3125
72.4000 1266.6675
72.4200 1372.0425
72.4400 1406.5175
72.4600 1463.7300
72.4800 1370.8450
72.5000 1370.6050
72.5200 1554.1800
72.5400 1497.2850
72.5600 1388.1650
72.5800 1289.2200
72.6000 1263.6300
72.6200 1308.5975
72.6400 1289.6050
72.6600 1251.4875
72.6800 1216.3500
72.7000 1200.0000
72.7200 1215.2125
72.7400 1225.0000
72.7600 1235.1550
72.7800 1246.7475
72.8000 1270.3400
72.8200 1252.8025
72.8400 1294.4400
72.8600 1374.1000
72.8800 1338.8050
72.9000 1320.4125
72.9200 1292.4800
72.9400 1164.4575
72.9600 1212.5100
72.9800 1298.6875
73.0000 1287.8475
73.0200 1259.6250
73.0400 1214.0975
73.0600 1242.9925
73.0800 1254.4550
73.1000 1287.9275
73.1200 1316.6675
73.1400 1234.3075
73.1600 1131.8225
73.1800 1254.6475
73.2000 1277.7800
73.2200 1269.4700
73.2400 1271.0025
73.2600 1304.8625
73.2800 1379.8975
73.3000 1335.8475
73.3200 1348.6625
73.3400 1445.5550
73.3600 1436.6325
73.3800 1465.4550
73.4000 1380.4775
73.4200 1355.1375
73.4400 1268.8400
73.4600 1283.3300
73.4800 1302.0625
73.5000 1288.5500
73.5200 1411.7200
73.5400 1368.4125
73.5600 1352.2750
73.5800 1268.2425
73.6000 1142.4125
73.6200 1134.5300
73.6400 1092.3250
73.6600 1179.0175
73.6800 1192.2375
73.7000 1179.3525
73.7200 1286.3275
73.7400 1304.8275
73.7600 1299.1350
73.7800 1123.8550
73.8000 1159.0875
73.8200 1283.8975
73.8400 1303.0500
73.8600 1432.1700
73.8800 1439.5525
73.9000 1447.6525
73.9200 1432.6100
73.9400 1466.6650
73.9600 1637.9800
73.9800 1695.4225
74.0000 1922.5100
74.0200 2185.9925
74.0400 2391.4125
74.0600 2370.7775
74.0800 2194.0475
74.1000 2130.3350
74.1200 2074.5975
74.1400 1849.2975
74.1600 1827.2300
74.1800 1671.6300
74.2000 1606.5375
74.2200 1751.2550
74.2400 1870.3100
74.2600 1830.2100
74.2800 1775.5500
74.3000 1804.3050
74.3200 1830.3800
74.3400 1844.1025
74.3600 1758.3825
74.3800 1600.4650
74.4000 1433.7125
74.4200 1347.9900
74.4400 1327.9275
74.4600 1384.5125
74.4800 1459.9825
74.5000 1407.4700
74.5200 1328.7050
74.5400 1395.1700
74.5600 1409.0775
74.5800 1451.4600
74.6000 1336.4500
74.6200 1214.7775
74.6400 1120.8325
74.6600 1246.9225
74.6800 1349.7050
74.7000 1254.5625
74.7200 1150.8075
74.7400 1141.4100
74.7600 1171.8975
74.7800 1194.2900
74.8000 1227.4175
74.8200 1247.1550
74.8400 1222.5400
74.8600 1098.4050
74.8800 1074.6700
74.9000 1097.1725
74.9200 1232.2275
74.9400 1382.7100
74.9600 1402.9275
74.9800 1347.4850
75.0000 1297.3650
75.0200 1277.8025
75.0400 1230.7125
75.0600 1164.0100
75.0800 1136.1225
75.1000 1172.1800
75.1200 1263.8675
75.1400 1249.9750
75.1600 1147.1200
75.1800 1175.1400
75.2000 1141.4725
75.2200 1113.9100
75.2400 1127.8275
75.2600 1222.6975
75.2800 1300.2050
75.3000 1176.8075
75.3200 1097.1350
75.3400 1147.7000
75.3600 1275.9425
75.3800 1190.3000
75.4000 1181.1700
75.4200 1230.8200
75.4400 1185.4050
75.4600 1152.7025
75.4800 1200.7175
75.5000 1309.6000
75.5200 1248.3975
75.5400 1222.5975
75.5600 1284.2175
75.5800 1297.0175
75.6000 1365.2875
75.6200 1394.3325
75.6400 1289.5625
75.6600 1150.8325
75.6800 977.6525
75.7000 1064.5125
75.7200 1156.0975
75.7400 1166.6675
75.7600 1189.4675
75.7800 1251.3475
75.8000 1286.4200
75.8200 1263.0950
75.8400 1290.0350
75.8600 1193.8525
75.8800 1164.5825
75.9000 1180.7325
75.9200 1286.6225
75.9400 1115.1000
75.9600 964.9375
75.9800 1160.2625
76.0000 1269.8475
76.0200 1171.2825
76.0400 1223.0375
76.0600 1139.6900
76.0800 1198.8625
76.1000 1296.2500
76.1200 1287.7375
76.1400 1159.1825
76.1600 1183.6775
76.1800 1106.4550
76.2000 1220.8850
76.2200 1140.6000
76.2400 1115.7050
76.2600 1220.6325
76.2800 1165.1350
76.3000 1334.8700
76.3200 1384.1575
76.3400 1366.6675
76.3600 1220.5575
76.3800 1205.1275
76.4000 1301.1050
76.4200 1473.9525
76.4400 1462.9650
76.4600 1515.5000
76.4800 1708.5975
76.5000 1704.4525
76.5200 1616.1625
76.5400 1550.4450
76.5600 1698.3600
76.5800 1542.5150
76.6000 1420.4825
76.6200 1426.0600
76.6400 1415.5925
76.6600 1437.9275
76.6800 1343.3750
76.7000 1507.5050
76.7200 1360.2525
76.7400 1254.7900
76.7600 1374.8175
76.7800 1407.1525
76.8000 1441.6775
76.8200 1428.5400
76.8400 1219.8600
76.8600 1237.1700
76.8800 1137.5975
76.9000 1208.8925
76.9200 1270.3025
76.9400 1155.2175
76.9600 1156.2875
76.9800 1270.9900
77.0000 1314.3375
77.0200 1178.4475
77.0400 1191.1600
77.0600 1180.5475
77.0800 1226.9150
77.1000 1213.8200
77.1200 1163.7900
77.1400 1150.0000
77.1600 1228.5875
77.1800 1161.5275
77.2000 1179.5000
77.2200 1133.3325
77.2400 1223.5825
77.2600 1266.6675
77.2800 1132.9950
77.3000 1223.2000
77.3200 1329.7775
77.3400 1289.0850
77.3600 1412.9850
77.3800 1509.3800
77.4000 1567.7475
77.4200 1693.3500
77.4400 1672.1600
77.4600 1692.8575
77.4800 1787.9925
77.5000 1559.0900
77.5200 1343.9075
77.5400 1361.4300
77.5600 1524.7450
77.5800 1464.2375
77.6000 1498.9050
77.6200 1568.1475
77.6400 1521.6425
77.6600 1500.0000
77.6800 1543.2575
77.7000 1527.4100
77.7200 1405.2500
77.7400 1335.6900
77.7600 1306.4000
77.7800 1275.1775
77.8000 1334.9850
77.8200 1246.4475
77.8400 1282.9875
77.8600 1302.1075
77.8800 1187.8325
77.9000 1162.4725
77.9200 1166.6675
77.9400 1122.9350
77.9600 1120.8375
77.9800 1043.6500
78.0000 1160.7150
78.0200 1164.4550
78.0400 1193.9125
78.0600 1214.6125
78.0800 1153.8275
78.1000 1127.0450
78.1200 1320.1250
78.1400 1484.1250
78.1600 1245.5600
78.1800 1290.8425
78.2000 1194.3975
78.2200 1137.3600
78.2400 1190.2650
78.2600 1151.3550
78.2800 1190.3600
78.3000 1227.3575
78.3200 1322.1875
78.3400 1184.8500
78.3600 1235.0475
78.3800 1266.6675
78.4000 1215.7250
78.4200 1174.5075
78.4400 1255.9600
78.4600 1238.6500
78.4800 1231.3875
78.5000 1163.0025
78.5200 1199.2575
78.5400 1248.6875
78.5600 1194.2375
78.5800 1040.2900
78.6000 1134.8200
78.6200 1239.2525
78.6400 1194.0300
78.6600 1232.9200
78.6800 1262.8825
78.7000 1253.7750
78.7200 1127.4250
78.7400 1052.9275
78.7600 944.7400
78.7800 936.0675
78.8000 1161.7225
78.8200 1186.1350
78.8400 1233.3450
78.8600 1198.0975
78.8800 1131.3875
78.9000 1129.6625
78.9200 1224.3825
78.9400 1126.3350
78.9600 1000.4725
78.9800 1131.4600
79.0000 1044.5125
79.0200 1040.9800
79.0400 1102.2775
79.0600 1064.3475
79.0800 1213.6275
79.1000 1205.9300
79.1200 1132.6675
79.1400 1182.2725
79.1600 1134.3425
79.1800 1064.0975
79.2000 1023.6950
79.2200 1154.8750
79.2400 1020.4150
79.2600 1007.9575
79.2800 1109.0225
79.3000 1133.3325
79.3200 1153.1550
79.3400 1118.6600
79.3600 1042.1575
79.3800 1011.7550
79.4000 1074.6125
79.4200 1144.7300
79.4400 1105.2275
79.4600 1065.0950
79.4800 1071.6300
79.5000 1041.7325
79.5200 1166.5050
79.5400 1233.3175
79.5600 1341.6975
79.5800 1279.9050
79.6000 1151.4700
79.6200 1151.7375
79.6400 1165.0225
79.6600 1113.1125
79.6800 1187.0925
79.7000 1369.2400
79.7200 1260.7225
79.7400 1184.7125
79.7600 1141.4025
79.7800 1146.7825
79.8000 1331.7050
79.8200 1146.0150
79.8400 1239.9450
79.8600 1362.6850
79.8800 1329.3325
79.9000 1336.9325
79.9200 1294.3475
79.9400 1384.8100
79.9600 1442.1825
79.9800 1483.8750
80.0000 1701.8500
