*FILE_COMMENT ""
*FILE_MD5 ""
*FILE_MEMO ""
*FILE_OPERATOR "Administrator"
*FILE_PACKAGE_NAME ""
*FILE_PART_ID "GeneralMeasurement"
*FILE_SAMPLE ""
*FILE_SYSTEM_NAME "MiniFlex"
*FILE_TYPE "RAS_RAW"
*FILE_USERGROUP "Administrators"
*FILE_VERSION "1"
*HW_ATTACHMENT_NAME_INTERNAL "ASC8"
*HW_COUNTER_ID-0 "CUT0025"
*HW_COUNTER_ID-2 "CMC0020"
*HW_COUNTER_MONOCHRO_ID "CMC0020"
*HW_COUNTER_MONOCHRO_NAME "None"
*HW_COUNTER_MONOCHRO_NAME_INTERNAL "None"
*HW_COUNTER_NAME_INTERNAL "DteX100"
*HW_COUNTER_NAME-0 "DteX100"
*HW_COUNTER_NAME-1 "None"
*HW_COUNTER_NAME-2 "None"
*HW_COUNTER_PIXEL_SIZE "0.1"
*HW_COUNTER_SELECT_NAME "DteX100"
*HW_GONIOMETER_ID "GON0021"
*HW_GONIOMETER_NAME "Standard"
*HW_GONIOMETER_NAME_INTERNAL "Standard"
*HW_GONIOMETER_RADIUS-0 "90.0"
*HW_GONIOMETER_RADIUS-1 "114.0"
*HW_GONIOMETER_RADIUS-2 "91.5"
*HW_GONIOMETER_RADIUS-3 "150.0"
*HW_GONIOMETER_RADIUS-4 "103.4"
*HW_GONIOMETER_RADIUS-5 "150.0"
*HW_GONIOMETER_RADIUS-6 "46.6"
*HW_GONIOMETER_RADIUS-7 "150.0"
*HW_I_CBO_ID "CBO0020"
*HW_I_CBO_NAME "No_unit"
*HW_I_CBO_NAME_INTERNAL "No_unit"
*HW_I_MONOCHRO_NAME_INTERNAL "Manual"
*HW_I_OPT_ID-1 "CBO0020"
*HW_I_PRIMARY_NAME_INTERNAL "No_unit"
*HW_I_SLIT_NAME_INTERNAL "Manual"
*HW_R_ATTENUATER_AUTOMODE "0"
*HW_R_ATTENUATER_ID "ATN0020"
*HW_R_ATTENUATER_NAME "No_unit"
*HW_R_ATTENUATOR_NAME_INTERNAL "No_unit"
*HW_R_OPT_ID-1 "RCR0023"
*HW_R_OPT_ID-4 "ATN0020"
*HW_R_ROD_ID "RCR0023"
*HW_R_ROD_NAME "No_unit"
*HW_R_ROD_NAME_INTERNAL "No_unit"
*HW_R_RPS_NAME_INTERNAL "Manual"
*HW_R_RS_NAME_INTERNAL "Manual"
*HW_R_SS_NAME_INTERNAL "Manual"
*HW_SAMPLE_HOLDER_NAME_INTERNAL "None"
*HW_SAMPLE_NAME "None"
*HW_SAMPLE_NAME_INTERNAL "None"
*HW_SAMPLE_PLATE_NAME "None"
*HW_SAMPLE_PLATE_NAME_INTERNAL "None"
*HW_SAMPLE_SPACER_NAME "None"
*HW_SAMPLE_SPACER_NAME_INTERNAL "None"
*HW_USERINFO_CATALOG_NO ""
*HW_USERINFO_INSTRUMENT_ID ""
*HW_USERINFO_INSTRUMENT_NAME ""
*HW_USERINFO_INSTRUMENT_NO ""
*HW_USERINFO_MODEL ""
*HW_USERINFO_ORDER_NO ""
*HW_USERINFO_SERIAL_NO ""
*HW_USERINFO_VERIFY_INSTRUMENT_ID "00-07-fe-03-00-df"
*HW_VER_RCD_COUNTER_UNIT "N/A"
*HW_VER_RCD_CPU "10.0.1"
*HW_VER_RCD_FPGA "3.0.1"
*HW_VER_RCD_GONIO_UNIT "0.0.0"
*HW_VER_RCD_INCIDENT_UNIT "0.0.0"
*HW_VER_RCD_RECEIVING_UNIT "0.0.0"
*HW_VER_RCD_TYPE "RINCII"
*HW_VER_XGC_CPU "10.0.1"
*HW_VER_XGC_CW "5.0.0"
*HW_VER_XGC_HV "5.0.0"
*HW_VER_XGC_RS1 "5.0.0"
*HW_VER_XGC_RS2 "N/A"
*HW_VER_XGC_RT "N/A"
*HW_VER_XGC_TYPE "RINCII"
*HW_XG_CURRENT_UNIT "mA"
*HW_XG_FOCUS "0.4mm x 8mm"
*HW_XG_FOCUS_TYPE "Fine"
*HW_XG_TARGET_ATOMIC_NUMBER "29"
*HW_XG_TARGET_NAME "Cu"
*HW_XG_TYPE "Hermetic"
*HW_XG_VOLTAGE_UNIT "kV"
*HW_XG_WAVE_LENGTH_ALPHA1 "1.540593"
*HW_XG_WAVE_LENGTH_ALPHA2 "1.544414"
*HW_XG_WAVE_LENGTH_BETA "1.392246"
*HW_XG_WAVE_LENGTH_UNIT "Angstrom"
*MEAS_COND_AXIS_NAME_INTERNAL-0 "TwoThetaTheta"
*MEAS_COND_AXIS_NAME_INTERNAL-1 "IncidentSollerSlit"
*MEAS_COND_AXIS_NAME_INTERNAL-10 "Changer"
*MEAS_COND_AXIS_NAME_INTERNAL-11 "ReceivingSlitBox1"
*MEAS_COND_AXIS_NAME_INTERNAL-12 "ReceivingSlitBox1"
*MEAS_COND_AXIS_NAME_INTERNAL-13 "ReceivingSlitBox1"
*MEAS_COND_AXIS_NAME_INTERNAL-14 "Filter"
*MEAS_COND_AXIS_NAME_INTERNAL-15 "ReceivingSollerSlit"
*MEAS_COND_AXIS_NAME_INTERNAL-16 "ReceivingSlitBox2"
*MEAS_COND_AXIS_NAME_INTERNAL-17 "ReceivingSlitBox2"
*MEAS_COND_AXIS_NAME_INTERNAL-18 "ReceivingSlitBox2"
*MEAS_COND_AXIS_NAME_INTERNAL-19 "PHA"
*MEAS_COND_AXIS_NAME_INTERNAL-2 "IncidentSlitBox"
*MEAS_COND_AXIS_NAME_INTERNAL-20 "RS3"
*MEAS_COND_AXIS_NAME_INTERNAL-21 "Target_TargetTime"
*MEAS_COND_AXIS_NAME_INTERNAL-22 "Target_XrayOnTime"
*MEAS_COND_AXIS_NAME_INTERNAL-23 "Target_TMPTime"
*MEAS_COND_AXIS_NAME_INTERNAL-24 "Target_RPTime"
*MEAS_COND_AXIS_NAME_INTERNAL-25 "Target_FilamentTime"
*MEAS_COND_AXIS_NAME_INTERNAL-26 "Target_IG"
*MEAS_COND_AXIS_NAME_INTERNAL-27 "Target_GP"
*MEAS_COND_AXIS_NAME_INTERNAL-28 "Target_FC"
*MEAS_COND_AXIS_NAME_INTERNAL-29 "HVPS_Bias"
*MEAS_COND_AXIS_NAME_INTERNAL-3 "IncidentSlitBox"
*MEAS_COND_AXIS_NAME_INTERNAL-30 "HVPS_HVPSTime"
*MEAS_COND_AXIS_NAME_INTERNAL-31 "HVPS_Type1Time"
*MEAS_COND_AXIS_NAME_INTERNAL-32 "HVPS_Type2Time"
*MEAS_COND_AXIS_NAME_INTERNAL-33 "HVPS_Type3Time"
*MEAS_COND_AXIS_NAME_INTERNAL-34 "CW_IERTime"
*MEAS_COND_AXIS_NAME_INTERNAL-35 "CW_ECTime"
*MEAS_COND_AXIS_NAME_INTERNAL-36 "CW_Flow1"
*MEAS_COND_AXIS_NAME_INTERNAL-37 "CW_Temperature1"
*MEAS_COND_AXIS_NAME_INTERNAL-38 "CW_Pressure1"
*MEAS_COND_AXIS_NAME_INTERNAL-39 "CW_PressureIn"
*MEAS_COND_AXIS_NAME_INTERNAL-4 "IncidentSlitBox"
*MEAS_COND_AXIS_NAME_INTERNAL-40 "CW_PressureOut"
*MEAS_COND_AXIS_NAME_INTERNAL-41 "CW_Flow2"
*MEAS_COND_AXIS_NAME_INTERNAL-42 "CW_Temperature2"
*MEAS_COND_AXIS_NAME_INTERNAL-43 "CW_Pressure2"
*MEAS_COND_AXIS_NAME_INTERNAL-44 "RE_EnclosureTemp"
*MEAS_COND_AXIS_NAME_INTERNAL-45 "RE_EnclosureHummidity"
*MEAS_COND_AXIS_NAME_INTERNAL-46 "RE_CabinetTemp"
*MEAS_COND_AXIS_NAME_INTERNAL-47 "RE_RPTemp"
*MEAS_COND_AXIS_NAME_INTERNAL-48 "RE_ShutterAXrayOnTime"
*MEAS_COND_AXIS_NAME_INTERNAL-49 "RE_ShutterATimes"
*MEAS_COND_AXIS_NAME_INTERNAL-5 "IncidentAxdSlit"
*MEAS_COND_AXIS_NAME_INTERNAL-50 "RE_ShutterAOpenCloseTime"
*MEAS_COND_AXIS_NAME_INTERNAL-51 "RE_ShutterACloseOpenTime"
*MEAS_COND_AXIS_NAME_INTERNAL-52 "RE_ShutterBXrayOnTime"
*MEAS_COND_AXIS_NAME_INTERNAL-53 "RE_ShutterBTimes"
*MEAS_COND_AXIS_NAME_INTERNAL-54 "RE_ShutterBOpenCloseTime"
*MEAS_COND_AXIS_NAME_INTERNAL-55 "RE_ShutterBCloseOpenTime"
*MEAS_COND_AXIS_NAME_INTERNAL-56 "RE_XrayWarningRamp"
*MEAS_COND_AXIS_NAME_INTERNAL-57 "RE_ShutterAInstallation"
*MEAS_COND_AXIS_NAME_INTERNAL-58 "RE_ShutterARamp"
*MEAS_COND_AXIS_NAME_INTERNAL-59 "RE_ShutterBInstallation"
*MEAS_COND_AXIS_NAME_INTERNAL-6 "IncidentAxdSlit"
*MEAS_COND_AXIS_NAME_INTERNAL-60 "RE_ShutterBRamp"
*MEAS_COND_AXIS_NAME_INTERNAL-61 "RE_ExtShutterCLS"
*MEAS_COND_AXIS_NAME_INTERNAL-62 "RE_ExtXrayOFF"
*MEAS_COND_AXIS_NAME_INTERNAL-63 "RE_ExtSafetyCircuit"
*MEAS_COND_AXIS_NAME_INTERNAL-64 "Version_CPU"
*MEAS_COND_AXIS_NAME_INTERNAL-65 "Version_RS1"
*MEAS_COND_AXIS_NAME_INTERNAL-66 "Version_RS2"
*MEAS_COND_AXIS_NAME_INTERNAL-67 "Version_HV"
*MEAS_COND_AXIS_NAME_INTERNAL-68 "Version_CW"
*MEAS_COND_AXIS_NAME_INTERNAL-69 "Version_RT"
*MEAS_COND_AXIS_NAME_INTERNAL-7 "IncidentAxdSlit"
*MEAS_COND_AXIS_NAME_INTERNAL-70 "IncidentPrimary"
*MEAS_COND_AXIS_NAME_INTERNAL-71 "IncidentMonochromator"
*MEAS_COND_AXIS_NAME_INTERNAL-72 "ReceivingOptics"
*MEAS_COND_AXIS_NAME_INTERNAL-73 "CounterMonochromatorKind"
*MEAS_COND_AXIS_NAME_INTERNAL-8 "Filter"
*MEAS_COND_AXIS_NAME_INTERNAL-9 "Beta"
*MEAS_COND_AXIS_NAME-0 "TwoThetaTheta"
*MEAS_COND_AXIS_NAME-1 "IncidentSollerSlit"
*MEAS_COND_AXIS_NAME-10 "Changer"
*MEAS_COND_AXIS_NAME-11 "ReceivingSlitBox1"
*MEAS_COND_AXIS_NAME-12 "ReceivingSlitBox1-_Axis"
*MEAS_COND_AXIS_NAME-13 "SlitSS"
*MEAS_COND_AXIS_NAME-14 "Filter"
*MEAS_COND_AXIS_NAME-15 "ReceivingSollerSlit"
*MEAS_COND_AXIS_NAME-16 "ReceivingSlitBox2"
*MEAS_COND_AXIS_NAME-17 "ReceivingSlitBox2-_Axis"
*MEAS_COND_AXIS_NAME-18 "SlitRS"
*MEAS_COND_AXIS_NAME-19 "PHA"
*MEAS_COND_AXIS_NAME-2 "IncidentSlitBox"
*MEAS_COND_AXIS_NAME-20 "RS3"
*MEAS_COND_AXIS_NAME-21 "Target_TargetTime"
*MEAS_COND_AXIS_NAME-22 "Target_XrayOnTime"
*MEAS_COND_AXIS_NAME-23 "Target_TMPTime"
*MEAS_COND_AXIS_NAME-24 "Target_RPTime"
*MEAS_COND_AXIS_NAME-25 "Target_FilamentTime"
*MEAS_COND_AXIS_NAME-26 "Target_IG"
*MEAS_COND_AXIS_NAME-27 "Target_GP"
*MEAS_COND_AXIS_NAME-28 "Target_FC"
*MEAS_COND_AXIS_NAME-29 "HVPS_Bias"
*MEAS_COND_AXIS_NAME-3 "IncidentSlitBox-_Axis"
*MEAS_COND_AXIS_NAME-30 "HVPS_HVPSTime"
*MEAS_COND_AXIS_NAME-31 "HVPS_Type1Time"
*MEAS_COND_AXIS_NAME-32 "HVPS_Type2Time"
*MEAS_COND_AXIS_NAME-33 "HVPS_Type3Time"
*MEAS_COND_AXIS_NAME-34 "CW_IERTime"
*MEAS_COND_AXIS_NAME-35 "CW_ECTime"
*MEAS_COND_AXIS_NAME-36 "CW_Flow1"
*MEAS_COND_AXIS_NAME-37 "CW_Temperature1"
*MEAS_COND_AXIS_NAME-38 "CW_Pressure1"
*MEAS_COND_AXIS_NAME-39 "CW_PressureIn"
*MEAS_COND_AXIS_NAME-4 "SlitDS"
*MEAS_COND_AXIS_NAME-40 "CW_PressureOut"
*MEAS_COND_AXIS_NAME-41 "CW_Flow2"
*MEAS_COND_AXIS_NAME-42 "CW_Temperature2"
*MEAS_COND_AXIS_NAME-43 "CW_Pressure2"
*MEAS_COND_AXIS_NAME-44 "RE_EnclosureTemp"
*MEAS_COND_AXIS_NAME-45 "RE_EnclosureHummidity"
*MEAS_COND_AXIS_NAME-46 "RE_CabinetTemp"
*MEAS_COND_AXIS_NAME-47 "RE_RPTemp"
*MEAS_COND_AXIS_NAME-48 "RE_ShutterAXrayOnTime"
*MEAS_COND_AXIS_NAME-49 "RE_ShutterATimes"
*MEAS_COND_AXIS_NAME-5 "IncidentAxdSlit"
*MEAS_COND_AXIS_NAME-50 "RE_ShutterAOpenCloseTime"
*MEAS_COND_AXIS_NAME-51 "RE_ShutterACloseOpenTime"
*MEAS_COND_AXIS_NAME-52 "RE_ShutterBXrayOnTime"
*MEAS_COND_AXIS_NAME-53 "RE_ShutterBTimes"
*MEAS_COND_AXIS_NAME-54 "RE_ShutterBOpenCloseTime"
*MEAS_COND_AXIS_NAME-55 "RE_ShutterBCloseOpenTime"
*MEAS_COND_AXIS_NAME-56 "RE_XrayWarningRamp"
*MEAS_COND_AXIS_NAME-57 "RE_ShutterAInstallation"
*MEAS_COND_AXIS_NAME-58 "RE_ShutterARamp"
*MEAS_COND_AXIS_NAME-59 "RE_ShutterBInstallation"
*MEAS_COND_AXIS_NAME-6 "LLS"
*MEAS_COND_AXIS_NAME-60 "RE_ShutterBRamp"
*MEAS_COND_AXIS_NAME-61 "RE_ExtShutterCLS"
*MEAS_COND_AXIS_NAME-62 "RE_ExtXrayOFF"
*MEAS_COND_AXIS_NAME-63 "RE_ExtSafetyCircuit"
*MEAS_COND_AXIS_NAME-64 "Version_CPU"
*MEAS_COND_AXIS_NAME-65 "Version_RS1"
*MEAS_COND_AXIS_NAME-66 "Version_RS2"
*MEAS_COND_AXIS_NAME-67 "Version_HV"
*MEAS_COND_AXIS_NAME-68 "Version_CW"
*MEAS_COND_AXIS_NAME-69 "Version_RT"
*MEAS_COND_AXIS_NAME-7 "DHLSlit"
*MEAS_COND_AXIS_NAME-70 "IncidentPrimary"
*MEAS_COND_AXIS_NAME-71 "IncidentMonochromator"
*MEAS_COND_AXIS_NAME-72 "ReceivingOptics"
*MEAS_COND_AXIS_NAME-73 "CounterMonochromatorKind"
*MEAS_COND_AXIS_NAME-8 "Filter"
*MEAS_COND_AXIS_NAME-9 "Beta"
*MEAS_COND_AXIS_OFFSET-0 "0"
*MEAS_COND_AXIS_OFFSET-1 "0"
*MEAS_COND_AXIS_OFFSET-10 "0"
*MEAS_COND_AXIS_OFFSET-11 "0"
*MEAS_COND_AXIS_OFFSET-12 "0"
*MEAS_COND_AXIS_OFFSET-13 "0"
*MEAS_COND_AXIS_OFFSET-14 "0"
*MEAS_COND_AXIS_OFFSET-15 "0"
*MEAS_COND_AXIS_OFFSET-16 "0"
*MEAS_COND_AXIS_OFFSET-17 "0"
*MEAS_COND_AXIS_OFFSET-18 "0"
*MEAS_COND_AXIS_OFFSET-19 "0"
*MEAS_COND_AXIS_OFFSET-2 "0"
*MEAS_COND_AXIS_OFFSET-20 "0"
*MEAS_COND_AXIS_OFFSET-21 "0"
*MEAS_COND_AXIS_OFFSET-22 "0"
*MEAS_COND_AXIS_OFFSET-23 "0"
*MEAS_COND_AXIS_OFFSET-24 "0"
*MEAS_COND_AXIS_OFFSET-25 "0"
*MEAS_COND_AXIS_OFFSET-26 "0"
*MEAS_COND_AXIS_OFFSET-27 "0"
*MEAS_COND_AXIS_OFFSET-28 "0"
*MEAS_COND_AXIS_OFFSET-29 "0"
*MEAS_COND_AXIS_OFFSET-3 "0"
*MEAS_COND_AXIS_OFFSET-30 "0"
*MEAS_COND_AXIS_OFFSET-31 "0"
*MEAS_COND_AXIS_OFFSET-32 "0"
*MEAS_COND_AXIS_OFFSET-33 "0"
*MEAS_COND_AXIS_OFFSET-34 "0"
*MEAS_COND_AXIS_OFFSET-35 "0"
*MEAS_COND_AXIS_OFFSET-36 "0"
*MEAS_COND_AXIS_OFFSET-37 "0"
*MEAS_COND_AXIS_OFFSET-38 "0"
*MEAS_COND_AXIS_OFFSET-39 "0"
*MEAS_COND_AXIS_OFFSET-4 "0"
*MEAS_COND_AXIS_OFFSET-40 "0"
*MEAS_COND_AXIS_OFFSET-41 "0"
*MEAS_COND_AXIS_OFFSET-42 "0"
*MEAS_COND_AXIS_OFFSET-43 "0"
*MEAS_COND_AXIS_OFFSET-44 "0"
*MEAS_COND_AXIS_OFFSET-45 "0"
*MEAS_COND_AXIS_OFFSET-46 "0"
*MEAS_COND_AXIS_OFFSET-47 "0"
*MEAS_COND_AXIS_OFFSET-48 "0"
*MEAS_COND_AXIS_OFFSET-49 "0"
*MEAS_COND_AXIS_OFFSET-5 "0"
*MEAS_COND_AXIS_OFFSET-50 "0"
*MEAS_COND_AXIS_OFFSET-51 "0"
*MEAS_COND_AXIS_OFFSET-52 "0"
*MEAS_COND_AXIS_OFFSET-53 "0"
*MEAS_COND_AXIS_OFFSET-54 "0"
*MEAS_COND_AXIS_OFFSET-55 "0"
*MEAS_COND_AXIS_OFFSET-56 "0"
*MEAS_COND_AXIS_OFFSET-57 "0"
*MEAS_COND_AXIS_OFFSET-58 "0"
*MEAS_COND_AXIS_OFFSET-59 "0"
*MEAS_COND_AXIS_OFFSET-6 "0"
*MEAS_COND_AXIS_OFFSET-60 "0"
*MEAS_COND_AXIS_OFFSET-61 "0"
*MEAS_COND_AXIS_OFFSET-62 "0"
*MEAS_COND_AXIS_OFFSET-63 "0"
*MEAS_COND_AXIS_OFFSET-64 "0"
*MEAS_COND_AXIS_OFFSET-65 "0"
*MEAS_COND_AXIS_OFFSET-66 "0"
*MEAS_COND_AXIS_OFFSET-67 "0"
*MEAS_COND_AXIS_OFFSET-68 "0"
*MEAS_COND_AXIS_OFFSET-69 "0"
*MEAS_COND_AXIS_OFFSET-7 "0"
*MEAS_COND_AXIS_OFFSET-70 "0"
*MEAS_COND_AXIS_OFFSET-71 "0"
*MEAS_COND_AXIS_OFFSET-72 "0"
*MEAS_COND_AXIS_OFFSET-73 "0"
*MEAS_COND_AXIS_OFFSET-8 "0"
*MEAS_COND_AXIS_OFFSET-9 "0"
*MEAS_COND_AXIS_POSITION-0 "12.0000"
*MEAS_COND_AXIS_POSITION-1 "Soller_slit_2.5deg"
*MEAS_COND_AXIS_POSITION-10 "4"
*MEAS_COND_AXIS_POSITION-11 "8.0mm"
*MEAS_COND_AXIS_POSITION-12 "8.0mm"
*MEAS_COND_AXIS_POSITION-13 "8.0mm"
*MEAS_COND_AXIS_POSITION-14 "K_beta_x1.5"
*MEAS_COND_AXIS_POSITION-15 "Soller_slit_2.5deg"
*MEAS_COND_AXIS_POSITION-16 "Open"
*MEAS_COND_AXIS_POSITION-17 "Open"
*MEAS_COND_AXIS_POSITION-18 "Open"
*MEAS_COND_AXIS_POSITION-19 "43"
*MEAS_COND_AXIS_POSITION-2 "1.25deg"
*MEAS_COND_AXIS_POSITION-20 "Open"
*MEAS_COND_AXIS_POSITION-3 "1.25deg"
*MEAS_COND_AXIS_POSITION-4 "1.25deg"
*MEAS_COND_AXIS_POSITION-5 "10mm"
*MEAS_COND_AXIS_POSITION-6 "10mm"
*MEAS_COND_AXIS_POSITION-7 "10mm"
*MEAS_COND_AXIS_POSITION-70 "No_unit"
*MEAS_COND_AXIS_POSITION-71 "Manual"
*MEAS_COND_AXIS_POSITION-72 "No_unit"
*MEAS_COND_AXIS_POSITION-73 "None"
*MEAS_COND_AXIS_POSITION-8 "None"
*MEAS_COND_AXIS_RESOLUTION-0 "0.0025"
*MEAS_COND_AXIS_RESOLUTION-1 ""
*MEAS_COND_AXIS_RESOLUTION-10 "1"
*MEAS_COND_AXIS_RESOLUTION-11 ""
*MEAS_COND_AXIS_RESOLUTION-12 ""
*MEAS_COND_AXIS_RESOLUTION-13 ""
*MEAS_COND_AXIS_RESOLUTION-14 ""
*MEAS_COND_AXIS_RESOLUTION-15 ""
*MEAS_COND_AXIS_RESOLUTION-16 ""
*MEAS_COND_AXIS_RESOLUTION-17 ""
*MEAS_COND_AXIS_RESOLUTION-18 ""
*MEAS_COND_AXIS_RESOLUTION-19 "1"
*MEAS_COND_AXIS_RESOLUTION-2 ""
*MEAS_COND_AXIS_RESOLUTION-20 "0.1"
*MEAS_COND_AXIS_RESOLUTION-21 "0.01"
*MEAS_COND_AXIS_RESOLUTION-22 "0.010000"
*MEAS_COND_AXIS_RESOLUTION-23 "0.01"
*MEAS_COND_AXIS_RESOLUTION-24 "0.01"
*MEAS_COND_AXIS_RESOLUTION-25 "0.01"
*MEAS_COND_AXIS_RESOLUTION-26 "1"
*MEAS_COND_AXIS_RESOLUTION-27 "1"
*MEAS_COND_AXIS_RESOLUTION-28 "0.01"
*MEAS_COND_AXIS_RESOLUTION-29 "1"
*MEAS_COND_AXIS_RESOLUTION-3 ""
*MEAS_COND_AXIS_RESOLUTION-30 "0.01"
*MEAS_COND_AXIS_RESOLUTION-31 "0.01"
*MEAS_COND_AXIS_RESOLUTION-32 "0.01"
*MEAS_COND_AXIS_RESOLUTION-33 "0.01"
*MEAS_COND_AXIS_RESOLUTION-34 "0.010000"
*MEAS_COND_AXIS_RESOLUTION-35 "1"
*MEAS_COND_AXIS_RESOLUTION-36 "0.100000"
*MEAS_COND_AXIS_RESOLUTION-37 "1.000000"
*MEAS_COND_AXIS_RESOLUTION-38 "0.010000"
*MEAS_COND_AXIS_RESOLUTION-39 "0.01"
*MEAS_COND_AXIS_RESOLUTION-4 ""
*MEAS_COND_AXIS_RESOLUTION-40 "0.01"
*MEAS_COND_AXIS_RESOLUTION-41 "0.1"
*MEAS_COND_AXIS_RESOLUTION-42 "1"
*MEAS_COND_AXIS_RESOLUTION-43 "0.01"
*MEAS_COND_AXIS_RESOLUTION-44 "1.000000"
*MEAS_COND_AXIS_RESOLUTION-45 "1"
*MEAS_COND_AXIS_RESOLUTION-46 "1.000000"
*MEAS_COND_AXIS_RESOLUTION-47 "1"
*MEAS_COND_AXIS_RESOLUTION-48 "0.01"
*MEAS_COND_AXIS_RESOLUTION-49 "1"
*MEAS_COND_AXIS_RESOLUTION-5 ""
*MEAS_COND_AXIS_RESOLUTION-50 "1"
*MEAS_COND_AXIS_RESOLUTION-51 "1"
*MEAS_COND_AXIS_RESOLUTION-52 "0.01"
*MEAS_COND_AXIS_RESOLUTION-53 "1.000000"
*MEAS_COND_AXIS_RESOLUTION-54 "1.000000"
*MEAS_COND_AXIS_RESOLUTION-55 "1.000000"
*MEAS_COND_AXIS_RESOLUTION-56 "-"
*MEAS_COND_AXIS_RESOLUTION-57 "-"
*MEAS_COND_AXIS_RESOLUTION-58 "-"
*MEAS_COND_AXIS_RESOLUTION-59 "1.000000"
*MEAS_COND_AXIS_RESOLUTION-6 ""
*MEAS_COND_AXIS_RESOLUTION-60 "-"
*MEAS_COND_AXIS_RESOLUTION-61 "-"
*MEAS_COND_AXIS_RESOLUTION-62 "-"
*MEAS_COND_AXIS_RESOLUTION-63 "1.000000"
*MEAS_COND_AXIS_RESOLUTION-64 "1.000000"
*MEAS_COND_AXIS_RESOLUTION-65 "1.000000"
*MEAS_COND_AXIS_RESOLUTION-66 "1.000000"
*MEAS_COND_AXIS_RESOLUTION-67 "1.000000"
*MEAS_COND_AXIS_RESOLUTION-68 "1.000000"
*MEAS_COND_AXIS_RESOLUTION-69 "1.000000"
*MEAS_COND_AXIS_RESOLUTION-7 ""
*MEAS_COND_AXIS_RESOLUTION-8 ""
*MEAS_COND_AXIS_RESOLUTION-9 "0.9"
*MEAS_COND_AXIS_SPEED_RESOLUTION-9 "0.1"
*MEAS_COND_AXIS_SPEED_UNIT-9 "rpm"
*MEAS_COND_AXIS_SPEED-9 "80"
*MEAS_COND_AXIS_STATE-0 "Scan"
*MEAS_COND_AXIS_STATE-1 "Fixed"
*MEAS_COND_AXIS_STATE-10 "Fixed"
*MEAS_COND_AXIS_STATE-11 "Fixed"
*MEAS_COND_AXIS_STATE-12 "Fixed"
*MEAS_COND_AXIS_STATE-13 "Fixed"
*MEAS_COND_AXIS_STATE-14 "Fixed"
*MEAS_COND_AXIS_STATE-15 "Fixed"
*MEAS_COND_AXIS_STATE-16 "Fixed"
*MEAS_COND_AXIS_STATE-17 "Fixed"
*MEAS_COND_AXIS_STATE-18 "Fixed"
*MEAS_COND_AXIS_STATE-19 "Fixed"
*MEAS_COND_AXIS_STATE-2 "Fixed"
*MEAS_COND_AXIS_STATE-20 "Fixed"
*MEAS_COND_AXIS_STATE-21 "Fixed"
*MEAS_COND_AXIS_STATE-22 "Fixed"
*MEAS_COND_AXIS_STATE-23 "Fixed"
*MEAS_COND_AXIS_STATE-24 "Fixed"
*MEAS_COND_AXIS_STATE-25 "Fixed"
*MEAS_COND_AXIS_STATE-26 "Fixed"
*MEAS_COND_AXIS_STATE-27 "Fixed"
*MEAS_COND_AXIS_STATE-28 "Fixed"
*MEAS_COND_AXIS_STATE-29 "Fixed"
*MEAS_COND_AXIS_STATE-3 "Fixed"
*MEAS_COND_AXIS_STATE-30 "Fixed"
*MEAS_COND_AXIS_STATE-31 "Fixed"
*MEAS_COND_AXIS_STATE-32 "Fixed"
*MEAS_COND_AXIS_STATE-33 "Fixed"
*MEAS_COND_AXIS_STATE-34 "Fixed"
*MEAS_COND_AXIS_STATE-35 "Fixed"
*MEAS_COND_AXIS_STATE-36 "Fixed"
*MEAS_COND_AXIS_STATE-37 "Fixed"
*MEAS_COND_AXIS_STATE-38 "Fixed"
*MEAS_COND_AXIS_STATE-39 "Fixed"
*MEAS_COND_AXIS_STATE-4 "Fixed"
*MEAS_COND_AXIS_STATE-40 "Fixed"
*MEAS_COND_AXIS_STATE-41 "Fixed"
*MEAS_COND_AXIS_STATE-42 "Fixed"
*MEAS_COND_AXIS_STATE-43 "Fixed"
*MEAS_COND_AXIS_STATE-44 "Fixed"
*MEAS_COND_AXIS_STATE-45 "Fixed"
*MEAS_COND_AXIS_STATE-46 "Fixed"
*MEAS_COND_AXIS_STATE-47 "Fixed"
*MEAS_COND_AXIS_STATE-48 "Fixed"
*MEAS_COND_AXIS_STATE-49 "Fixed"
*MEAS_COND_AXIS_STATE-5 "Fixed"
*MEAS_COND_AXIS_STATE-50 "Fixed"
*MEAS_COND_AXIS_STATE-51 "Fixed"
*MEAS_COND_AXIS_STATE-52 "Fixed"
*MEAS_COND_AXIS_STATE-53 "Fixed"
*MEAS_COND_AXIS_STATE-54 "Fixed"
*MEAS_COND_AXIS_STATE-55 "Fixed"
*MEAS_COND_AXIS_STATE-56 "Fixed"
*MEAS_COND_AXIS_STATE-57 "Fixed"
*MEAS_COND_AXIS_STATE-58 "Fixed"
*MEAS_COND_AXIS_STATE-59 "Fixed"
*MEAS_COND_AXIS_STATE-6 "Fixed"
*MEAS_COND_AXIS_STATE-60 "Fixed"
*MEAS_COND_AXIS_STATE-61 "Fixed"
*MEAS_COND_AXIS_STATE-62 "Fixed"
*MEAS_COND_AXIS_STATE-63 "Fixed"
*MEAS_COND_AXIS_STATE-64 "Fixed"
*MEAS_COND_AXIS_STATE-65 "Fixed"
*MEAS_COND_AXIS_STATE-66 "Fixed"
*MEAS_COND_AXIS_STATE-67 "Fixed"
*MEAS_COND_AXIS_STATE-68 "Fixed"
*MEAS_COND_AXIS_STATE-69 "Fixed"
*MEAS_COND_AXIS_STATE-7 "Fixed"
*MEAS_COND_AXIS_STATE-8 "Fixed"
*MEAS_COND_AXIS_STATE-9 "Rotation"
*MEAS_COND_AXIS_UNIT-0 "deg"
*MEAS_COND_AXIS_UNIT-1 ""
*MEAS_COND_AXIS_UNIT-10 ""
*MEAS_COND_AXIS_UNIT-11 ""
*MEAS_COND_AXIS_UNIT-12 ""
*MEAS_COND_AXIS_UNIT-13 ""
*MEAS_COND_AXIS_UNIT-14 ""
*MEAS_COND_AXIS_UNIT-15 ""
*MEAS_COND_AXIS_UNIT-16 ""
*MEAS_COND_AXIS_UNIT-17 ""
*MEAS_COND_AXIS_UNIT-18 ""
*MEAS_COND_AXIS_UNIT-19 "div"
*MEAS_COND_AXIS_UNIT-2 ""
*MEAS_COND_AXIS_UNIT-20 ""
*MEAS_COND_AXIS_UNIT-21 "H"
*MEAS_COND_AXIS_UNIT-22 "H"
*MEAS_COND_AXIS_UNIT-23 "H"
*MEAS_COND_AXIS_UNIT-24 "H"
*MEAS_COND_AXIS_UNIT-25 "H"
*MEAS_COND_AXIS_UNIT-26 "mV"
*MEAS_COND_AXIS_UNIT-27 "V"
*MEAS_COND_AXIS_UNIT-28 "V"
*MEAS_COND_AXIS_UNIT-29 "V"
*MEAS_COND_AXIS_UNIT-3 ""
*MEAS_COND_AXIS_UNIT-30 "H"
*MEAS_COND_AXIS_UNIT-31 "H"
*MEAS_COND_AXIS_UNIT-32 "H"
*MEAS_COND_AXIS_UNIT-33 "H"
*MEAS_COND_AXIS_UNIT-34 "H"
*MEAS_COND_AXIS_UNIT-35 "uS/m"
*MEAS_COND_AXIS_UNIT-36 "L/min"
*MEAS_COND_AXIS_UNIT-37 "degree"
*MEAS_COND_AXIS_UNIT-38 "MPa"
*MEAS_COND_AXIS_UNIT-39 "MPa"
*MEAS_COND_AXIS_UNIT-4 ""
*MEAS_COND_AXIS_UNIT-40 "MPa"
*MEAS_COND_AXIS_UNIT-41 "L/min"
*MEAS_COND_AXIS_UNIT-42 "C"
*MEAS_COND_AXIS_UNIT-43 "MPa"
*MEAS_COND_AXIS_UNIT-44 "degree"
*MEAS_COND_AXIS_UNIT-45 "percent"
*MEAS_COND_AXIS_UNIT-46 "degree"
*MEAS_COND_AXIS_UNIT-47 "C"
*MEAS_COND_AXIS_UNIT-48 "H"
*MEAS_COND_AXIS_UNIT-49 "time"
*MEAS_COND_AXIS_UNIT-5 ""
*MEAS_COND_AXIS_UNIT-50 "msec"
*MEAS_COND_AXIS_UNIT-51 "msec"
*MEAS_COND_AXIS_UNIT-52 "H"
*MEAS_COND_AXIS_UNIT-53 "times"
*MEAS_COND_AXIS_UNIT-54 "msec"
*MEAS_COND_AXIS_UNIT-55 "msec"
*MEAS_COND_AXIS_UNIT-56 "-"
*MEAS_COND_AXIS_UNIT-57 "-"
*MEAS_COND_AXIS_UNIT-58 "-"
*MEAS_COND_AXIS_UNIT-59 ""
*MEAS_COND_AXIS_UNIT-6 ""
*MEAS_COND_AXIS_UNIT-60 "-"
*MEAS_COND_AXIS_UNIT-61 "-"
*MEAS_COND_AXIS_UNIT-62 "-"
*MEAS_COND_AXIS_UNIT-63 ""
*MEAS_COND_AXIS_UNIT-64 ""
*MEAS_COND_AXIS_UNIT-65 ""
*MEAS_COND_AXIS_UNIT-66 ""
*MEAS_COND_AXIS_UNIT-67 ""
*MEAS_COND_AXIS_UNIT-68 ""
*MEAS_COND_AXIS_UNIT-69 ""
*MEAS_COND_AXIS_UNIT-7 ""
*MEAS_COND_AXIS_UNIT-70 ""
*MEAS_COND_AXIS_UNIT-71 ""
*MEAS_COND_AXIS_UNIT-72 ""
*MEAS_COND_AXIS_UNIT-73 ""
*MEAS_COND_AXIS_UNIT-8 ""
*MEAS_COND_AXIS_UNIT-9 "deg"
*MEAS_COND_COUNTER_CENTER_X "0.5"
*MEAS_COND_COUNTER_CENTER_Y "67.34"
*MEAS_COND_COUNTER_COUNTMODE "Differential"
*MEAS_COND_COUNTER_DEADTIMECORRECTION "Enabled"
*MEAS_COND_COUNTER_DISTANCE "150"
*MEAS_COND_COUNTER_ENERGYMODE "XRFReduction"
*MEAS_COND_COUNTER_PHA_UNIT "div"
*MEAS_COND_COUNTER_PHABASE "43"
*MEAS_COND_COUNTER_PHAWINDOW "21"
*MEAS_COND_COUNTER_PITCH_X "20"
*MEAS_COND_COUNTER_PITCH_Y "0.1"
*MEAS_COND_COUNTER_PITCHUNIT "mm"
*MEAS_COND_COUNTER_VALIDWIDTH_X "1"
*MEAS_COND_COUNTER_VALIDWIDTH_Y "200"
*MEAS_COND_XG_CURRENT "15"
*MEAS_COND_XG_VOLTAGE "40"
*MEAS_COND_XG_WAVE_TYPE "Ka"
*MEAS_DATA_COUNT "3751"
*MEAS_SCAN_AXIS_X "TwoThetaTheta"
*MEAS_SCAN_AXIS_X_INTERNAL "TwoThetaTheta"
*MEAS_SCAN_END_TIME "06/03/2024 13:14:07"
*MEAS_SCAN_MODE "CONTINUOUS"
*MEAS_SCAN_MODE_INTERNAL "TDI_1D"
*MEAS_SCAN_RESOLUTION_X "0.0025"
*MEAS_SCAN_SPEED "10.0000"
*MEAS_SCAN_SPEED_UNIT "deg/min"
*MEAS_SCAN_START "5.0000"
*MEAS_SCAN_START_TIME "06/03/2024 13:05:58"
*MEAS_SCAN_STEP "0.0200"
*MEAS_SCAN_STOP "80.0000"
*MEAS_SCAN_UNEQUALY_SPACED "False"
*MEAS_SCAN_UNIT_X "deg"
*MEAS_SCAN_UNIT_Y "cps"
#Intensity_unit=cps
#Attenuator_coefficient=1.0000
5.0000 1941.6675
5.0200 1941.6675
5.0400 1941.6675
5.0600 1969.7800
5.0800 2022.2550
5.1000 1839.0750
5.1200 1870.5425
5.1400 1774.0525
5.1600 1773.5450
5.1800 1981.3950
5.2000 1857.0575
5.2200 1888.6300
5.2400 1917.1650
5.2600 1918.1850
5.2800 1849.5175
5.3000 1966.0975
5.3200 1725.5175
5.3400 1754.7900
5.3600 1789.5125
5.3800 2003.8975
5.4000 2093.7775
5.4200 1923.7650
5.4400 1985.5075
5.4600 2043.8450
5.4800 1826.5300
5.5000 2016.6675
5.5200 2046.8975
5.5400 2115.6375
5.5600 1947.6550
5.5800 1897.6500
5.6000 1852.9900
5.6200 1915.2900
5.6400 2197.0625
5.6600 2064.3800
5.6800 1875.5525
5.7000 1987.5125
5.7200 1938.0975
5.7400 1941.0650
5.7600 1989.2850
5.7800 1905.3475
5.8000 1786.3325
5.8200 1976.8050
5.8400 2016.0125
5.8600 1832.1825
5.8800 1924.9650
5.9000 1851.2200
5.9200 1913.0875
5.9400 1892.8425
5.9600 1879.1950
5.9800 1907.1000
6.0000 1821.9725
6.0200 1803.7175
6.0400 1987.4650
6.0600 1948.8300
6.0800 1962.4600
6.1000 1902.3350
6.1200 1884.0425
6.1400 2008.3325
6.1600 1997.5800
6.1800 2035.3975
6.2000 2246.7675
6.2200 1952.2350
6.2400 1853.1450
6.2600 1984.4000
6.2800 1907.8975
6.3000 2060.1250
6.3200 2064.8750
6.3400 2056.5400
6.3600 2021.3175
6.3800 1916.6675
6.4000 1941.7625
6.4200 2035.1250
6.4400 2007.6125
6.4600 1910.2175
6.4800 2001.1650
6.5000 2018.0075
6.5200 2157.0825
6.5400 2089.8750
6.5600 2052.8800
6.5800 1954.2050
6.6000 1982.0900
6.6200 1945.3175
6.6400 2076.8575
6.6600 2175.0000
6.6800 2112.3550
6.7000 1953.1250
6.7200 2131.3975
6.7400 1923.3450
6.7600 2188.0900
6.7800 2183.9400
6.8000 2173.7625
6.8200 2048.8375
6.8400 2141.6500
6.8600 2023.2050
6.8800 1935.7150
6.9000 2019.6350
6.9200 2158.3450
6.9400 2039.9000
6.9600 1936.3150
6.9800 1923.8000
7.0000 1957.1300
7.0200 2008.2825
7.0400 2060.8050
7.0600 1925.5725
7.0800 1954.7725
7.1000 1936.3275
7.1200 1955.8025
7.1400 2107.1125
7.1600 2053.3425
7.1800 1831.1825
7.2000 2144.4025
7.2200 2242.6475
7.2400 2024.8425
7.2600 2088.2875
7.2800 2018.7925
7.3000 2132.2800
7.3200 2047.1825
7.3400 1962.6075
7.3600 1952.0575
7.3800 2090.4075
7.4000 2111.3625
7.4200 2065.1650
7.4400 1984.3250
7.4600 2057.0600
7.4800 2055.1100
7.5000 1946.4750
7.5200 1915.7150
7.5400 1920.4350
7.5600 2174.5350
7.5800 2159.2550
7.6000 2170.5100
7.6200 1977.2075
7.6400 2025.4450
7.6600 2039.0350
7.6800 1978.9400
7.7000 2042.5200
7.7200 2082.0700
7.7400 1985.0825
7.7600 2047.6200
7.7800 2205.9150
7.8000 2001.3500
7.8200 2009.8975
7.8400 2103.3075
7.8600 1986.2100
7.8800 2088.1850
7.9000 2061.0825
7.9200 2015.2875
7.9400 2048.6150
7.9600 2028.1400
7.9800 1867.3425
8.0000 1987.0500
8.0200 2177.8150
8.0400 2130.1900
8.0600 2120.6150
8.0800 1999.6975
8.1000 1975.2950
8.1200 2016.9525
8.1400 2063.7800
8.1600 2135.5975
8.1800 2153.3100
8.2000 1970.8700
8.2200 2103.9300
8.2400 2167.9000
8.2600 2074.0700
8.2800 1963.9150
8.3000 2073.9375
8.3200 2118.8375
8.3400 1998.1800
8.3600 2173.2825
8.3800 1905.6550
8.4000 2057.3275
8.4200 2186.7325
8.4400 2147.3650
8.4600 1958.6275
8.4800 2021.6125
8.5000 2032.0300
8.5200 2106.4025
8.5400 2072.1775
8.5600 2194.6325
8.5800 2037.9250
8.6000 1940.4825
8.6200 2111.4750
8.6400 2030.0375
8.6600 2066.7750
8.6800 2099.8200
8.7000 1988.4250
8.7200 2106.7625
8.7400 2163.2050
8.7600 1903.3450
8.7800 1970.0075
8.8000 1944.9500
8.8200 2076.6100
8.8400 2110.1700
8.8600 1999.7250
8.8800 2181.7900
8.9000 2093.4550
8.9200 2011.8675
8.9400 1953.0325
8.9600 2083.1350
8.9800 2126.9750
9.0000 2041.5450
9.0200 2042.1950
9.0400 1906.6950
9.0600 1935.9875
9.0800 2050.6625
9.1000 1931.3475
9.1200 1998.1825
9.1400 2026.6275
9.1600 2031.7100
9.1800 2039.5975
9.2000 2044.9300
9.2200 1866.8050
9.2400 2041.0850
9.2600 1877.4225
9.2800 1852.5725
9.3000 2141.6675
9.3200 2120.7975
9.3400 2044.5525
9.3600 2058.0575
9.3800 1969.4000
9.4000 2145.3975
9.4200 1977.0800
9.4400 2082.1250
9.4600 2017.8475
9.4800 1921.4225
9.5000 1979.6525
9.5200 2146.4075
9.5400 2127.2275
9.5600 1934.7075
9.5800 1886.7925
9.6000 2069.5750
9.6200 1874.5025
9.6400 1903.6400
9.6600 1927.0600
9.6800 2108.8725
9.7000 2070.3300
9.7200 2046.8925
9.7400 2048.8400
9.7600 2096.5425
9.7800 1982.0650
9.8000 1883.6325
9.8200 1986.0475
9.8400 2103.7225
9.8600 2106.3425
9.8800 2171.5850
9.9000 2006.8050
9.9200 2001.5250
9.9400 2034.2150
9.9600 2102.8925
9.9800 1920.4825
10.0000 2015.1850
10.0200 1859.8450
10.0400 1883.2525
10.0600 1929.7425
10.0800 1819.5250
10.1000 1921.8225
10.1200 1972.8625
10.1400 1936.9425
10.1600 1973.7900
10.1800 1903.5600
10.2000 1980.5875
10.2200 2061.1275
10.2400 1958.3325
10.2600 2012.8800
10.2800 2250.4850
10.3000 2161.7875
10.3200 2097.0700
10.3400 2073.1025
10.3600 2073.1275
10.3800 2265.0750
10.4000 2104.3550
10.4200 2123.5525
10.4400 2119.5575
10.4600 2149.1975
10.4800 2181.8325
10.5000 1976.4350
10.5200 2007.6825
10.5400 2110.7100
10.5600 2055.9225
10.5800 2095.1325
10.6000 1976.9600
10.6200 2104.0875
10.6400 2039.5575
10.6600 1810.9125
10.6800 1809.1200
10.7000 2131.8525
10.7200 2079.1375
10.7400 2042.9900
10.7600 1976.4075
10.7800 2031.9400
10.8000 2044.5150
10.8200 1963.7150
10.8400 2123.5525
10.8600 2136.3525
10.8800 2067.4800
10.9000 2227.2975
10.9200 1958.0250
10.9400 2022.6325
10.9600 1929.0675
10.9800 1960.8175
11.0000 2004.5300
11.0200 1949.7375
11.0400 1990.3250
11.0600 1996.7100
11.0800 2076.0050
11.1000 2093.0750
11.1200 1939.5900
11.1400 2027.2475
11.1600 2083.3325
11.1800 2096.4850
11.2000 2192.8950
11.2200 2281.0275
11.2400 2007.8225
11.2600 2057.8000
11.2800 2102.5925
11.3000 2098.5750
11.3200 2014.1725
11.3400 2109.6500
11.3600 2192.9650
11.3800 2071.3075
11.4000 1860.3025
11.4200 1841.4950
11.4400 1986.4625
11.4600 2241.7200
11.4800 2028.4450
11.5000 2132.8950
11.5200 2064.5975
11.5400 1977.0100
11.5600 2064.7175
11.5800 1957.0975
11.6000 1935.2050
11.6200 1891.7800
11.6400 2116.1875
11.6600 2041.0800
11.6800 2161.4350
11.7000 2045.4575
11.7200 2111.8325
11.7400 2079.7200
11.7600 2049.9325
11.7800 2003.5875
11.8000 2033.3425
11.8200 2088.0825
11.8400 2097.7350
11.8600 2005.7350
11.8800 2151.0650
11.9000 2173.2175
11.9200 1964.1650
11.9400 2017.4300
11.9600 2122.6850
11.9800 2097.9525
12.0000 2032.1850
12.0200 2023.8550
12.0400 2016.6675
12.0600 2023.4825
12.0800 2090.4325
12.1000 2245.0475
12.1200 2230.7325
12.1400 2002.2375
12.1600 2004.4125
12.1800 1947.1950
12.2000 2082.8250
12.2200 2025.0000
12.2400 2014.0375
12.2600 1961.3200
12.2800 2125.3750
12.3000 2315.3500
12.3200 2073.6275
12.3400 1993.3000
12.3600 1914.1200
12.3800 2078.3775
12.4000 2136.0700
12.4200 2001.2775
12.4400 2148.1200
12.4600 2290.5450
12.4800 2157.2925
12.5000 2078.1850
12.5200 1990.5600
12.5400 2048.8600
12.5600 2092.8375
12.5800 2043.7025
12.6000 2075.5675
12.6200 2145.5150
12.6400 1783.1400
12.6600 2035.9950
12.6800 2115.6725
12.7000 2122.1925
12.7200 2214.1625
12.7400 2143.1375
12.7600 2203.9825
12.7800 2121.9250
12.8000 2212.4425
12.8200 2119.5500
12.8400 2152.1875
12.8600 2230.4800
12.8800 2208.3325
12.9000 2200.8000
12.9200 2139.7925
12.9400 2124.0675
12.9600 2113.8850
12.9800 2088.9000
13.0000 2076.7550
13.0200 2147.3875
13.0400 2062.8700
13.0600 2100.0000
13.0800 2097.3075
13.1000 2067.8625
13.1200 2017.2050
13.1400 2094.3125
13.1600 2124.5600
13.1800 2182.9450
13.2000 2110.0675
13.2200 2125.8625
13.2400 2119.6225
13.2600 2033.2200
13.2800 2308.0675
13.3000 2132.2450
13.3200 1912.5450
13.3400 2054.0950
13.3600 2315.8400
13.3800 2303.4075
13.4000 2242.8350
13.4200 2117.0225
13.4400 2269.3625
13.4600 2208.6650
13.4800 2134.9225
13.5000 2146.0525
13.5200 2110.6875
13.5400 2140.3450
13.5600 2182.7975
13.5800 1954.0850
13.6000 2152.2275
13.6200 2101.5200
13.6400 2193.2275
13.6600 2113.7900
13.6800 1998.5150
13.7000 1984.0700
13.7200 1994.5925
13.7400 2043.8700
13.7600 2242.3875
13.7800 2240.7050
13.8000 2143.0850
13.8200 2141.4325
13.8400 1975.1025
13.8600 2144.4675
13.8800 1999.2325
13.9000 2077.1925
13.9200 2004.2725
13.9400 1977.8025
13.9600 2180.0250
13.9800 1969.8100
14.0000 2193.4525
14.0200 2118.6150
14.0400 2134.5850
14.0600 2065.9525
14.0800 2253.9050
14.1000 2178.6850
14.1200 1925.9875
14.1400 2045.9775
14.1600 2091.4575
14.1800 2003.2800
14.2000 2251.7475
14.2200 2156.5825
14.2400 2034.4000
14.2600 2160.6600
14.2800 2202.6125
14.3000 2328.3250
14.3200 2037.8500
14.3400 2092.7325
14.3600 2001.0725
14.3800 2149.2100
14.4000 2363.6225
14.4200 2188.7450
14.4400 2018.1075
14.4600 1936.5950
14.4800 2227.1100
14.5000 2143.5900
14.5200 2289.3525
14.5400 2129.0100
14.5600 2185.7225
14.5800 2090.1975
14.6000 2081.6575
14.6200 2309.7150
14.6400 2064.4675
14.6600 2171.3250
14.6800 2246.3200
14.7000 2181.9700
14.7200 2154.7475
14.7400 2100.5100
14.7600 2253.9700
14.7800 2173.7100
14.8000 2154.2425
14.8200 2224.5500
14.8400 2060.3950
14.8600 2100.4075
14.8800 2111.9350
14.9000 2186.8825
14.9200 2253.2875
14.9400 2156.1150
14.9600 2271.2975
14.9800 2017.4075
15.0000 2047.8900
15.0200 2355.9300
15.0400 2121.2400
15.0600 2226.7275
15.0800 2271.0800
15.1000 2361.9975
15.1200 2047.7100
15.1400 2006.7575
15.1600 2383.3325
15.1800 2383.0250
15.2000 2370.1600
15.2200 2249.0750
15.2400 2445.0675
15.2600 2308.9000
15.2800 2318.3350
15.3000 2128.5275
15.3200 2237.3100
15.3400 2357.8150
15.3600 2336.3600
15.3800 2162.4775
15.4000 2027.4000
15.4200 2113.2425
15.4400 2290.3850
15.4600 2537.0225
15.4800 2358.0750
15.5000 2045.8425
15.5200 2524.8450
15.5400 2184.9000
15.5600 2254.7350
15.5800 2454.6725
15.6000 2295.3750
15.6200 2462.5825
15.6400 2267.4850
15.6600 2306.9175
15.6800 2231.6725
15.7000 2148.0250
15.7200 2508.3325
15.7400 2508.0700
15.7600 2489.0400
15.7800 2317.8525
15.8000 2399.3275
15.8200 2351.0550
15.8400 2431.2525
15.8600 2257.5925
15.8800 2191.4075
15.9000 2169.6875
15.9200 2483.2600
15.9400 2475.0675
15.9600 2482.5550
15.9800 2373.7225
16.0000 2176.2125
16.0200 2390.1850
16.0400 2083.3675
16.0600 2091.5875
16.0800 2066.9300
16.1000 2175.2025
16.1200 2299.8825
16.1400 2158.3325
16.1600 2141.6800
16.1800 2158.3075
16.2000 2598.9500
16.2200 2375.7175
16.2400 2424.8000
16.2600 2358.6525
16.2800 2283.7525
16.3000 2490.3300
16.3200 2690.2225
16.3400 2650.3350
16.3600 2418.7300
16.3800 2449.6775
16.4000 2408.7700
16.4200 2111.7200
16.4400 2264.7500
16.4600 2348.9225
16.4800 2350.0000
16.5000 2374.6350
16.5200 2276.5375
16.5400 2381.5775
16.5600 2170.3550
16.5800 2330.3575
16.6000 2276.0900
16.6200 2291.3425
16.6400 2283.5025
16.6600 2356.7475
16.6800 2415.3850
16.7000 2367.8075
16.7200 2293.4400
16.7400 2372.9600
16.7600 2375.0000
16.7800 2318.1925
16.8000 2519.3775
16.8200 2322.4650
16.8400 2446.1775
16.8600 2522.7875
16.8800 2533.0800
16.9000 2428.3800
16.9200 2392.7350
16.9400 2512.5575
16.9600 2532.7700
16.9800 2436.7900
17.0000 2497.6375
17.0200 2508.0300
17.0400 2355.8775
17.0600 2309.9150
17.0800 2772.9025
17.1000 2447.5500
17.1200 2297.4075
17.1400 2499.3675
17.1600 2612.0900
17.1800 2568.8225
17.2000 2383.4250
17.2200 2637.6750
17.2400 2570.4725
17.2600 2511.0475
17.2800 2595.6550
17.3000 2647.5875
17.3200 2348.8900
17.3400 2507.5000
17.3600 2500.8475
17.3800 2444.6850
17.4000 2220.6050
17.4200 2310.8750
17.4400 2419.1125
17.4600 2299.0275
17.4800 2401.7900
17.5000 2408.3325
17.5200 2478.9950
17.5400 2459.8000
17.5600 2575.8850
17.5800 2426.7450
17.6000 2479.2450
17.6200 2663.0750
17.6400 2378.3150
17.6600 2537.7350
17.6800 2581.1700
17.7000 2474.3375
17.7200 2466.6675
17.7400 2342.3375
17.7600 2535.1775
17.7800 2433.6625
17.8000 2548.9750
17.8200 2418.9950
17.8400 2524.3375
17.8600 2765.1175
17.8800 2474.5850
17.9000 2442.2900
17.9200 2534.1125
17.9400 2580.1475
17.9600 2575.6450
17.9800 2928.3425
18.0000 2551.6200
18.0200 2700.6600
18.0400 2609.4425
18.0600 2615.3025
18.0800 2540.2300
18.1000 2800.6025
18.1200 2702.9400
18.1400 2630.6975
18.1600 2815.3400
18.1800 2681.2125
18.2000 2674.2650
18.2200 2545.9550
18.2400 2859.4150
18.2600 2611.3675
18.2800 2923.8975
18.3000 2867.6075
18.3200 2737.4875
18.3400 2657.0925
18.3600 2695.2250
18.3800 2677.4100
18.4000 2817.9225
18.4200 2705.5850
18.4400 2661.6400
18.4600 2500.8500
18.4800 2797.9800
18.5000 2661.2050
18.5200 2507.0950
18.5400 2491.6675
18.5600 2737.8700
18.5800 2684.6825
18.6000 2675.0000
18.6200 2794.0000
18.6400 2852.9125
18.6600 2709.8925
18.6800 2624.9375
18.7000 2527.7900
18.7200 2953.1900
18.7400 2897.4700
18.7600 2861.1850
18.7800 2651.8250
18.8000 2838.6575
18.8200 2859.3075
18.8400 2468.6850
18.8600 2438.7000
18.8800 2551.7100
18.9000 2610.6375
18.9200 2755.7550
18.9400 3023.6300
18.9600 2824.5800
18.9800 2813.5575
19.0000 2758.3550
19.0200 2480.6000
19.0400 2543.4925
19.0600 2754.4975
19.0800 2674.4725
19.1000 2752.5775
19.1200 2629.0775
19.1400 2680.6700
19.1600 2850.6300
19.1800 2788.3875
19.2000 2911.9850
19.2200 3055.7625
19.2400 2751.2800
19.2600 2908.3875
19.2800 2769.4000
19.3000 2827.7050
19.3200 2848.8275
19.3400 2964.4600
19.3600 2797.5425
19.3800 3037.9025
19.4000 2676.9375
19.4200 2943.0550
19.4400 3064.0225
19.4600 2954.2050
19.4800 2904.9425
19.5000 3006.3425
19.5200 2883.3725
19.5400 2929.0675
19.5600 2984.0575
19.5800 2885.8100
19.6000 2908.9600
19.6200 3064.5275
19.6400 3028.3700
19.6600 2700.5550
19.6800 2964.4300
19.7000 3102.0925
19.7200 3123.6675
19.7400 2978.1650
19.7600 2956.9850
19.7800 3076.9225
19.8000 3058.1950
19.8200 2834.2550
19.8400 2805.5700
19.8600 2884.7075
19.8800 3149.6575
19.9000 3006.0525
19.9200 3049.6875
19.9400 3115.0375
19.9600 2993.8600
19.9800 3214.8450
20.0000 2936.1575
20.0200 2887.2975
20.0400 3193.9075
20.0600 3066.2300
20.0800 2997.5900
20.1000 2923.2225
20.1200 3133.9225
20.1400 3285.7500
20.1600 3021.9175
20.1800 3019.6325
20.2000 3012.9250
20.2200 3062.6900
20.2400 3136.0750
20.2600 3258.4475
20.2800 3195.3300
20.3000 3175.0000
20.3200 3215.5175
20.3400 3319.4225
20.3600 3126.1075
20.3800 3095.1825
20.4000 3207.5125
20.4200 3226.6225
20.4400 3090.9450
20.4600 3131.9700
20.4800 3303.7775
20.5000 3234.8250
20.5200 3201.6650
20.5400 3133.3925
20.5600 3263.0175
20.5800 3226.9175
20.6000 3055.7175
20.6200 3149.2075
20.6400 3275.9925
20.6600 3333.0500
20.6800 3249.2425
20.7000 3132.6950
20.7200 3305.8750
20.7400 3371.4850
20.7600 3407.8400
20.7800 3429.7850
20.8000 3420.2325
20.8200 3318.5325
20.8400 3291.6675
20.8600 3343.8700
20.8800 3351.8175
20.9000 3480.1650
20.9200 3399.6700
20.9400 3438.0700
20.9600 3717.6400
20.9800 3390.2700
21.0000 3275.0000
21.0200 3384.7700
21.0400 3242.5575
21.0600 3333.3450
21.0800 3362.1375
21.1000 3371.1800
21.1200 3330.1000
21.1400 3528.0500
21.1600 3757.9875
21.1800 3770.0025
21.2000 3643.4975
21.2200 3735.7575
21.2400 3736.8250
21.2600 3763.1225
21.2800 3565.6050
21.3000 3595.0500
21.3200 3840.1525
21.3400 3845.1400
21.3600 3812.3775
21.3800 3543.6475
21.4000 3823.3500
21.4200 4035.9375
21.4400 3853.2800
21.4600 3889.8800
21.4800 3937.5175
21.5000 4035.4175
21.5200 4091.6325
21.5400 3969.1150
21.5600 3993.4625
21.5800 4066.3875
21.6000 4132.9850
21.6200 4273.9550
21.6400 4465.2025
21.6600 4269.4550
21.6800 4399.3375
21.7000 4308.6050
21.7200 3954.6050
21.7400 4046.6500
21.7600 4282.3525
21.7800 4758.3550
21.8000 4877.7375
21.8200 4610.0375
21.8400 4406.8400
21.8600 4799.2450
21.8800 4787.9850
21.9000 4810.0500
21.9200 4793.1375
21.9400 4884.0350
21.9600 4876.6100
21.9800 4973.0900
22.0000 5173.4725
22.0200 5143.0000
22.0400 5481.1600
22.0600 5540.9375
22.0800 5604.2650
22.1000 6060.7450
22.1200 5914.1450
22.1400 5905.0800
22.1600 5997.6825
22.1800 6355.8950
22.2000 6628.3450
22.2200 6653.6650
22.2400 7038.6250
22.2600 7389.3075
22.2800 7578.9000
22.3000 7707.5725
22.3200 8165.6875
22.3400 8300.5050
22.3600 8694.3275
22.3800 9189.1000
22.4000 9418.6575
22.4200 9785.6300
22.4400 10339.3325
22.4600 10877.9250
22.4800 11376.5825
22.5000 11844.4875
22.5200 12516.9250
22.5400 13022.1750
22.5600 13933.8000
22.5800 14554.6650
22.6000 15775.9350
22.6200 16433.5650
22.6400 16979.5150
22.6600 18471.0475
22.6800 19445.2425
22.7000 20276.9825
22.7200 21305.9000
22.7400 22799.0025
22.7600 24067.6225
22.7800 24976.6475
22.8000 26552.3925
22.8200 27376.2750
22.8400 28425.2250
22.8600 29851.9450
22.8800 30953.7650
22.9000 31849.3800
22.9200 32330.0325
22.9400 33204.9200
22.9600 34171.5325
22.9800 34698.8250
23.0000 34302.9600
23.0200 34434.6550
23.0400 34007.2125
23.0600 33938.9325
23.0800 34063.8800
23.1000 33568.2075
23.1200 32907.4950
23.1400 32622.7150
23.1600 31927.5025
23.1800 31679.7000
23.2000 31186.6875
23.2200 31182.5275
23.2400 31275.7275
23.2600 31244.5350
23.2800 30963.3825
23.3000 31263.3575
23.3200 31831.7375
23.3400 32024.6200
23.3600 32510.3000
23.3800 32777.4875
23.4000 33091.2350
23.4200 33403.9350
23.4400 33510.2500
23.4600 33750.7225
23.4800 33456.5150
23.5000 33133.9475
23.5200 32810.6425
23.5400 31969.7675
23.5600 31375.5200
23.5800 30566.8150
23.6000 29861.6975
23.6200 29476.5925
23.6400 28315.8400
23.6600 27552.9050
23.6800 27015.3625
23.7000 26653.0475
23.7200 26250.0875
23.7400 26086.7200
23.7600 25417.0950
23.7800 24652.8675
23.8000 24493.8500
23.8200 24399.9825
23.8400 24600.5900
23.8600 24745.9050
23.8800 24562.3500
23.9000 24225.5875
23.9200 24253.7075
23.9400 25404.5225
23.9600 26224.9100
23.9800 26292.2525
24.0000 26933.0325
24.0200 26843.4525
24.0400 27357.5050
24.0600 27919.0200
24.0800 28379.3100
24.1000 28114.8150
24.1200 27528.3600
24.1400 27430.6725
24.1600 27820.2900
24.1800 26986.0325
24.2000 26040.0050
24.2200 25669.0200
24.2400 24660.7850
24.2600 23107.2900
24.2800 21339.2175
24.3000 19893.5225
24.3200 18847.6150
24.3400 17877.0600
24.3600 16645.2900
24.3800 15396.9150
24.4000 14236.7650
24.4200 12964.4600
24.4400 12185.3525
24.4600 11219.3925
24.4800 10570.0800
24.5000 10023.8700
24.5200 9429.3525
24.5400 8864.8825
24.5600 8625.7250
24.5800 8290.6400
24.6000 7713.4400
24.6200 7488.1700
24.6400 7288.8825
24.6600 6924.8200
24.6800 6675.2875
24.7000 6531.5325
24.7200 6412.7200
24.7400 6366.6675
24.7600 6395.2975
24.7800 6192.8225
24.8000 5925.1825
24.8200 5911.6700
24.8400 5712.1400
24.8600 5525.0000
24.8800 5529.7150
24.9000 5538.0400
24.9200 5222.2750
24.9400 5317.1900
24.9600 5405.5650
24.9800 5107.9300
25.0000 5146.4100
25.0200 4977.4050
25.0400 4750.9475
25.0600 4781.4900
25.0800 4638.2400
25.1000 4702.0500
25.1200 4931.9800
25.1400 4766.5875
25.1600 4748.3575
25.1800 4759.8200
25.2000 4731.3750
25.2200 4755.2200
25.2400 4547.6950
25.2600 4449.9050
25.2800 4369.4275
25.3000 4411.2425
25.3200 4443.1625
25.3400 4492.6400
25.3600 4406.9450
25.3800 4362.6325
25.4000 4453.2550
25.4200 4450.5900
25.4400 4560.7250
25.4600 4423.4400
25.4800 4402.3150
25.5000 4531.7925
25.5200 4601.0250
25.5400 4643.6925
25.5600 4656.6775
25.5800 4577.2050
25.6000 4576.0675
25.6200 4561.4700
25.6400 4584.6900
25.6600 4743.4750
25.6800 4783.3325
25.7000 4696.7600
25.7200 4711.6875
25.7400 4687.9500
25.7600 4505.9300
25.7800 4424.7525
25.8000 4557.9450
25.8200 4832.6325
25.8400 4919.7825
25.8600 4845.2325
25.8800 4893.0425
25.9000 4886.2275
25.9200 4719.6275
25.9400 4797.7025
25.9600 5017.2050
25.9800 5242.8225
26.0000 5563.2175
26.0200 5762.6075
26.0400 5887.5075
26.0600 6062.2900
26.0800 6033.8950
26.1000 6193.8850
26.1200 6698.0375
26.1400 7106.1575
26.1600 7550.7000
26.1800 7976.4450
26.2000 8272.7225
26.2200 8734.6625
26.2400 9751.0925
26.2600 10608.4250
26.2800 11168.1025
26.3000 12019.9850
26.3200 12689.0425
26.3400 13246.3475
26.3600 14041.8900
26.3800 14264.0375
26.4000 14031.9625
26.4200 13719.9050
26.4400 12741.2600
26.4600 11916.7350
26.4800 11507.7800
26.5000 10650.4150
26.5200 9671.7775
26.5400 9101.5575
26.5600 8457.6200
26.5800 7825.6275
26.6000 7471.3100
26.6200 7157.7250
26.6400 6858.0100
26.6600 6446.8800
26.6800 6085.7750
26.7000 6015.3325
26.7200 5644.5650
26.7400 5304.3250
26.7600 5423.3250
26.7800 5152.9700
26.8000 4840.5700
26.8200 4681.3450
26.8400 4569.5175
26.8600 4701.2025
26.8800 4530.3700
26.9000 4471.5950
26.9200 4446.6375
26.9400 4457.1750
26.9600 4357.9100
26.9800 4196.9300
27.0000 4096.2925
27.0200 4117.5550
27.0400 4079.9125
27.0600 3896.0050
27.0800 3841.0550
27.1000 3928.6600
27.1200 3995.3900
27.1400 4009.4650
27.1600 3914.1050
27.1800 3907.2425
27.2000 3934.7275
27.2200 3828.6450
27.2400 3755.3400
27.2600 3883.3325
27.2800 3883.3325
27.3000 3776.4125
27.3200 3782.6175
27.3400 3837.9975
27.3600 3648.7375
27.3800 3771.1525
27.4000 3903.9050
27.4200 3825.9100
27.4400 3670.9150
27.4600 3623.2300
27.4800 3766.7300
27.5000 3651.6050
27.5200 3595.0800
27.5400 3834.1925
27.5600 3824.0725
27.5800 3896.0575
27.6000 3912.3825
27.6200 3882.2050
27.6400 3865.6575
27.6600 3832.3575
27.6800 3935.6225
27.7000 3976.3975
27.7200 3961.8400
27.7400 4045.3050
27.7600 4078.2000
27.7800 4038.3325
27.8000 4060.0675
27.8200 4114.4750
27.8400 4352.4325
27.8600 4416.0825
27.8800 4258.5750
27.9000 4325.0450
27.9200 4466.6675
27.9400 4570.8650
27.9600 4765.7975
27.9800 4920.2475
28.0000 5054.2875
28.0200 4995.4625
28.0400 4939.7125
28.0600 4940.9050
28.0800 5125.8075
28.1000 5348.1200
28.1200 5517.3775
28.1400 5751.6725
28.1600 5911.7925
28.1800 5854.6025
28.2000 6028.1775
28.2200 6171.7625
28.2400 6330.2225
28.2600 6445.9800
28.2800 6755.1425
28.3000 7035.0650
28.3200 7306.6750
28.3400 7404.5375
28.3600 7600.9400
28.3800 8073.8925
28.4000 7890.0775
28.4200 7990.5750
28.4400 8258.6625
28.4600 8279.9300
28.4800 8462.0825
28.5000 8478.4175
28.5200 8818.4775
28.5400 9043.3725
28.5600 9011.8125
28.5800 8869.6150
28.6000 8886.7525
28.6200 8928.8350
28.6400 8873.2575
28.6600 8828.0150
28.6800 8918.7775
28.7000 8757.2725
28.7200 8885.7050
28.7400 8687.9575
28.7600 8433.0450
28.7800 8178.3225
28.8000 8223.2175
28.8200 7788.0150
28.8400 7601.2050
28.8600 7363.3225
28.8800 7154.4500
28.9000 7039.5950
28.9200 7152.4750
28.9400 6791.7800
28.9600 6481.0675
28.9800 6280.3750
29.0000 6179.4775
29.0200 5858.7075
29.0400 5808.3325
29.0600 5786.5975
29.0800 5549.4550
29.1000 5123.0250
29.1200 5037.1000
29.1400 4966.9650
29.1600 4893.9575
29.1800 4862.7500
29.2000 4936.0725
29.2200 4670.5475
29.2400 4696.0175
29.2600 4692.7625
29.2800 4318.6675
29.3000 4236.9925
29.3200 4190.1900
29.3400 4090.6100
29.3600 3996.9225
29.3800 4003.8825
29.4000 3911.8125
29.4200 3986.2350
29.4400 3764.0825
29.4600 3823.5050
29.4800 3681.7550
29.5000 3711.6550
29.5200 3687.5225
29.5400 3648.3900
29.5600 3592.8075
29.5800 3553.6700
29.6000 3680.9825
29.6200 3664.8575
29.6400 3448.7600
29.6600 3522.9550
29.6800 3397.3150
29.7000 3292.1800
29.7200 3181.1950
29.7400 3308.5225
29.7600 3380.9650
29.7800 3219.1800
29.8000 3101.5250
29.8200 3011.7575
29.8400 3008.8775
29.8600 2973.9825
29.8800 3109.2925
29.9000 3144.9000
29.9200 3124.3200
29.9400 2966.4325
29.9600 2913.7075
29.9800 3018.2475
30.0000 3136.5700
30.0200 2980.2000
30.0400 3043.6200
30.0600 3132.3225
30.0800 3132.6875
30.1000 3045.4925
30.1200 3072.0125
30.1400 2975.5600
30.1600 3195.4600
30.1800 3360.0100
30.2000 3098.0300
30.2200 2823.4525
30.2400 2817.2075
30.2600 2698.5500
30.2800 2785.8475
30.3000 2871.3700
30.3200 2973.1175
30.3400 2997.7425
30.3600 2950.0400
30.3800 2970.8325
30.4000 2918.9275
30.4200 2841.2875
30.4400 2958.4475
30.4600 2937.4250
30.4800 2929.6425
30.5000 2852.4825
30.5200 2808.3325
30.5400 2780.2325
30.5600 2663.7000
30.5800 2656.5100
30.6000 2797.9575
30.6200 2524.9600
30.6400 2865.2025
30.6600 2895.7300
30.6800 3065.0725
30.7000 2915.2450
30.7200 2801.9225
30.7400 2793.0400
30.7600 2745.4700
30.7800 2746.9775
30.8000 2725.2825
30.8200 2809.5650
30.8400 2885.0875
30.8600 2829.6250
30.8800 2783.4550
30.9000 2723.5725
30.9200 2884.8250
30.9400 2714.4175
30.9600 2679.9150
30.9800 2904.7375
31.0000 2873.7850
31.0200 2820.7825
31.0400 2861.3600
31.0600 2861.0225
31.0800 2910.5825
31.1000 2823.2600
31.1200 2785.5050
31.1400 2745.8625
31.1600 3005.4825
31.1800 2787.3600
31.2000 2588.0150
31.2200 2568.9475
31.2400 2769.8250
31.2600 2598.3550
31.2800 2501.8250
31.3000 2472.5225
31.3200 2721.8775
31.3400 2722.1800
31.3600 2876.2300
31.3800 2743.7100
31.4000 2885.2725
31.4200 2832.9075
31.4400 2775.5475
31.4600 2941.4200
31.4800 2728.1225
31.5000 2761.8325
31.5200 2863.8775
31.5400 2905.0775
31.5600 2755.7475
31.5800 2549.9300
31.6000 2853.0075
31.6200 2845.7400
31.6400 2776.7350
31.6600 2905.9025
31.6800 2921.6025
31.7000 2897.2625
31.7200 3080.7500
31.7400 3222.0850
31.7600 3065.4825
31.7800 3274.9575
31.8000 3004.9875
31.8200 3258.1925
31.8400 3133.2675
31.8600 2926.3825
31.8800 2969.0150
31.9000 3167.7175
31.9200 3232.6150
31.9400 3094.6225
31.9600 3065.3325
31.9800 3050.3800
32.0000 3028.0725
32.0200 3181.6800
32.0400 3420.9100
32.0600 3276.1350
32.0800 3143.4700
32.1000 3430.2925
32.1200 3694.1875
32.1400 3673.3200
32.1600 3512.2325
32.1800 3728.6950
32.2000 3759.7800
32.2200 3808.1750
32.2400 3721.0200
32.2600 3504.7775
32.2800 3565.3275
32.3000 3785.3750
32.3200 3926.6725
32.3400 3836.5550
32.3600 4172.4050
32.3800 4221.9950
32.4000 4316.2375
32.4200 4370.0250
32.4400 4429.4200
32.4600 4663.9900
32.4800 4616.7775
32.5000 4793.0750
32.5200 4913.0675
32.5400 5325.8900
32.5600 5618.7750
32.5800 5636.4700
32.6000 5645.9000
32.6200 5586.0550
32.6400 5843.3650
32.6600 6268.9500
32.6800 6198.0300
32.7000 6066.3075
32.7200 6603.4300
32.7400 6941.6675
32.7600 7027.2725
32.7800 7649.0400
32.8000 7444.6500
32.8200 7914.7250
32.8400 7938.7675
32.8600 8740.3000
32.8800 8512.2150
32.9000 9493.7200
32.9200 9470.9675
32.9400 9823.8650
32.9600 10725.5075
32.9800 10691.8825
33.0000 11082.9025
33.0200 11955.8075
33.0400 11983.2875
33.0600 12435.8025
33.0800 12527.5375
33.1000 13225.4300
33.1200 13732.0275
33.1400 13348.5975
33.1600 13622.4225
33.1800 14159.3875
33.2000 14858.9950
33.2200 14482.1450
33.2400 15672.9625
33.2600 15840.3025
33.2800 15183.1750
33.3000 15749.6975
33.3200 16155.7600
33.3400 15802.1050
33.3600 16192.3525
33.3800 16233.8300
33.4000 16658.0475
33.4200 17090.5425
33.4400 16630.6175
33.4600 17090.3875
33.4800 17055.4425
33.5000 16858.3275
33.5200 17388.4800
33.5400 17543.8475
33.5600 17352.3900
33.5800 17262.1225
33.6000 17110.1075
33.6200 17365.1400
33.6400 17454.9850
33.6600 17386.9250
33.6800 17138.4000
33.7000 17924.8400
33.7200 17794.2600
33.7400 17722.1750
33.7600 17927.2900
33.7800 17826.4100
33.8000 17697.7350
33.8200 17368.8000
33.8400 17052.8900
33.8600 18100.7475
33.8800 18408.0875
33.9000 18568.4900
33.9200 18861.1925
33.9400 18147.0450
33.9600 18139.1775
33.9800 19025.3500
34.0000 18506.1075
34.0200 17783.9450
34.0400 17594.0800
34.0600 16926.9450
34.0800 16579.2500
34.1000 15901.4775
34.1200 15128.6125
34.1400 14022.4050
34.1600 13569.3200
34.1800 13793.2900
34.2000 12540.0225
34.2200 12017.1625
34.2400 10878.1700
34.2600 10248.0225
34.2800 9701.8700
34.3000 9482.8175
34.3200 8678.3400
34.3400 8236.6625
34.3600 7784.4275
34.3800 7521.6525
34.4000 7093.0975
34.4200 6828.1625
34.4400 6614.3150
34.4600 6177.2675
34.4800 6264.0175
34.5000 5768.2075
34.5200 5835.1775
34.5400 5504.9600
34.5600 5317.9200
34.5800 4914.2250
34.6000 4767.3000
34.6200 4812.8125
34.6400 5124.5650
34.6600 5084.5600
34.6800 4501.0950
34.7000 4599.0100
34.7200 4494.1150
34.7400 3836.8925
34.7600 4291.7225
34.7800 4299.0600
34.8000 4131.8425
34.8200 3809.6275
34.8400 4174.1150
34.8600 3817.1250
34.8800 4141.6550
34.9000 4108.3575
34.9200 4158.2450
34.9400 3967.2050
34.9600 3900.2575
34.9800 3875.1225
35.0000 3957.8350
35.0200 3817.6625
35.0400 3700.9425
35.0600 3708.2575
35.0800 3922.7950
35.1000 3883.8025
35.1200 3924.4875
35.1400 3990.7775
35.1600 3761.6875
35.1800 3758.3325
35.2000 3627.1950
35.2200 3927.9325
35.2400 3884.2625
35.2600 4014.0525
35.2800 3600.4450
35.3000 3974.8350
35.3200 3828.6000
35.3400 3873.8100
35.3600 3793.7350
35.3800 3767.3125
35.4000 3961.2850
35.4200 3739.8525
35.4400 3692.8750
35.4600 3820.9975
35.4800 3929.9675
35.5000 3925.2675
35.5200 3779.9700
35.5400 3783.0475
35.5600 3670.7725
35.5800 3706.8225
35.6000 3708.3325
35.6200 3628.1925
35.6400 3713.0600
35.6600 3532.7375
35.6800 3572.9300
35.7000 3630.8575
35.7200 3434.0525
35.7400 3401.1125
35.7600 3320.4600
35.7800 3125.9750
35.8000 3283.3425
35.8200 3220.3100
35.8400 2986.9925
35.8600 2872.1525
35.8800 2890.3750
35.9000 2725.8875
35.9200 2495.8675
35.9400 2774.7900
35.9600 2815.2725
35.9800 2620.1625
36.0000 2820.3300
36.0200 2778.4300
36.0400 2539.9575
36.0600 2618.9150
36.0800 2351.3775
36.1000 2598.8500
36.1200 2530.8575
36.1400 2415.9075
36.1600 2291.5750
36.1800 2384.4150
36.2000 2438.2700
36.2200 2705.4600
36.2400 2407.2425
36.2600 2530.4275
36.2800 2464.3325
36.3000 2319.2850
36.3200 2370.0650
36.3400 2267.0850
36.3600 2635.6225
36.3800 2335.9350
36.4000 2162.3550
36.4200 2180.6975
36.4400 2351.9925
36.4600 2121.6125
36.4800 2413.6350
36.5000 2235.3525
36.5200 2315.8950
36.5400 2172.5075
36.5600 1990.7750
36.5800 2134.7675
36.6000 2241.1950
36.6200 2196.8600
36.6400 2184.0825
36.6600 2198.4825
36.6800 2215.1325
36.7000 2178.8750
36.7200 2175.0000
36.7400 2031.7075
36.7600 2310.4700
36.7800 2243.8400
36.8000 2128.0975
36.8200 2026.5625
36.8400 2031.6675
36.8600 1838.5350
36.8800 2101.0600
36.9000 2185.6650
36.9200 2094.5875
36.9400 2008.7400
36.9600 1992.5500
36.9800 1872.5775
37.0000 1821.1600
37.0200 1898.3600
37.0400 2012.1925
37.0600 1965.7175
37.0800 2054.5625
37.1000 2214.5475
37.1200 2225.9475
37.1400 2062.6875
37.1600 1982.7100
37.1800 2048.6150
37.2000 1815.6700
37.2200 1864.1325
37.2400 1904.3500
37.2600 1966.9675
37.2800 1887.1475
37.3000 1955.4425
37.3200 2083.5450
37.3400 1888.3900
37.3600 2025.9775
37.3800 1889.8225
37.4000 2012.1225
37.4200 2084.1875
37.4400 2062.6400
37.4600 1891.6150
37.4800 1982.5175
37.5000 2159.1175
37.5200 2038.8400
37.5400 1951.7175
37.5600 1992.1275
37.5800 2014.4025
37.6000 1779.3050
37.6200 1885.3625
37.6400 1800.6800
37.6600 1890.8675
37.6800 1944.1375
37.7000 2107.3675
37.7200 2040.4475
37.7400 1818.0225
37.7600 1982.9525
37.7800 1859.9975
37.8000 2096.5325
37.8200 1864.5475
37.8400 1859.2525
37.8600 1774.4975
37.8800 1907.0550
37.9000 2131.4100
37.9200 1912.2800
37.9400 1774.9075
37.9600 1878.1925
37.9800 1921.1275
38.0000 2037.5600
38.0200 1959.9525
38.0400 1899.5500
38.0600 1772.4700
38.0800 1911.0875
38.1000 1745.7800
38.1200 1834.1200
38.1400 1942.0975
38.1600 1818.8800
38.1800 1903.1050
38.2000 1883.2575
38.2200 1909.7475
38.2400 1819.4825
38.2600 1806.9350
38.2800 1919.1550
38.3000 1886.3175
38.3200 1909.5550
38.3400 1840.7300
38.3600 1983.5975
38.3800 1906.4600
38.4000 1876.4525
38.4200 1854.3825
38.4400 1836.2700
38.4600 1901.9050
38.4800 1923.5175
38.5000 1918.1575
38.5200 1875.6600
38.5400 2003.2025
38.5600 2012.8750
38.5800 2069.6375
38.6000 1913.2325
38.6200 1841.0175
38.6400 1751.8675
38.6600 1685.8650
38.6800 1702.0950
38.7000 1823.3600
38.7200 1856.7575
38.7400 1892.0900
38.7600 1920.2300
38.7800 2093.4025
38.8000 2200.6200
38.8200 1873.8900
38.8400 1979.6475
38.8600 2004.8825
38.8800 1939.7125
38.9000 1871.4700
38.9200 1811.5475
38.9400 2013.6425
38.9600 1993.3100
38.9800 1875.0775
39.0000 1989.7350
39.0200 1925.3000
39.0400 1906.6400
39.0600 1782.3275
39.0800 2147.4650
39.1000 2177.2125
39.1200 2072.4075
39.1400 1944.3625
39.1600 2088.1350
39.1800 2080.6325
39.2000 1928.4800
39.2200 2009.9800
39.2400 1930.0500
39.2600 1926.2325
39.2800 1867.8225
39.3000 2052.8550
39.3200 1938.3850
39.3400 1930.8425
39.3600 2026.4525
39.3800 1900.1625
39.4000 1988.4825
39.4200 2005.5000
39.4400 2064.9300
39.4600 2018.4750
39.4800 2025.9150
39.5000 2013.9200
39.5200 2021.2625
39.5400 1966.8875
39.5600 1975.8000
39.5800 1976.8900
39.6000 2007.1775
39.6200 1978.0975
39.6400 1953.8250
39.6600 1943.5850
39.6800 2031.3625
39.7000 1987.9375
39.7200 1979.4525
39.7400 1945.0200
39.7600 1990.7400
39.7800 1919.1350
39.8000 2018.9525
39.8200 1899.4025
39.8400 2104.0050
39.8600 2088.1875
39.8800 2045.6600
39.9000 2149.2600
39.9200 2158.0450
39.9400 2036.3300
39.9600 1955.8450
39.9800 1954.2675
40.0000 1952.0400
40.0200 2012.8700
40.0400 2077.2950
40.0600 2072.8475
40.0800 2317.3150
40.1000 2205.9625
40.1200 2122.9100
40.1400 2066.7025
40.1600 2106.1475
40.1800 2193.5475
40.2000 2036.1500
40.2200 2267.2375
40.2400 2379.0875
40.2600 2209.6175
40.2800 2199.5775
40.3000 2191.9050
40.3200 2232.8025
40.3400 2336.4750
40.3600 2440.7050
40.3800 2331.0775
40.4000 2394.1475
40.4200 2267.2950
40.4400 2294.3325
40.4600 2325.0000
40.4800 2367.9050
40.5000 2469.0475
40.5200 2463.3050
40.5400 2584.3975
40.5600 2621.1275
40.5800 2519.1375
40.6000 2532.0450
40.6200 2695.9725
40.6400 2525.2050
40.6600 2544.8375
40.6800 2565.1475
40.7000 2576.5000
40.7200 2643.8225
40.7400 2878.1450
40.7600 2765.1925
40.7800 2848.4225
40.8000 3076.9600
40.8200 3045.4125
40.8400 3134.5275
40.8600 3303.3875
40.8800 3415.9575
40.9000 3273.9600
40.9200 3393.8075
40.9400 3484.5950
40.9600 3557.3350
40.9800 3619.1150
41.0000 3549.9375
41.0200 3540.4675
41.0400 3567.8325
41.0600 3705.6250
41.0800 3699.0225
41.1000 3752.0200
41.1200 3978.6300
41.1400 4241.5950
41.1600 4198.5625
41.1800 4433.1450
41.2000 4579.4625
41.2200 4621.0975
41.2400 4733.2875
41.2600 4868.9725
41.2800 5049.1400
41.3000 4967.6800
41.3200 4996.1475
41.3400 5056.7250
41.3600 5329.5375
41.3800 5354.1375
41.4000 5229.2325
41.4200 5372.1700
41.4400 5880.4125
41.4600 5857.5025
41.4800 5702.8250
41.5000 5744.5700
41.5200 6041.4025
41.5400 6117.8375
41.5600 6140.4525
41.5800 6291.1050
41.6000 6298.1025
41.6200 6113.7125
41.6400 6093.4550
41.6600 5817.7725
41.6800 5666.1075
41.7000 5830.4025
41.7200 5994.2750
41.7400 5701.3775
41.7600 5790.1250
41.7800 5534.4850
41.8000 5486.4725
41.8200 5570.1625
41.8400 5127.9000
41.8600 4899.6050
41.8800 4800.7725
41.9000 4860.4800
41.9200 4619.2275
41.9400 4296.4625
41.9600 4247.9300
41.9800 4136.7000
42.0000 4340.3025
42.0200 4190.3675
42.0400 3838.6550
42.0600 3902.1375
42.0800 3769.7400
42.1000 3610.5175
42.1200 3482.3700
42.1400 3366.0950
42.1600 3327.7350
42.1800 3280.2700
42.2000 3157.7950
42.2200 3130.6525
42.2400 3119.3725
42.2600 2930.1625
42.2800 2902.8500
42.3000 2911.1075
42.3200 2944.4025
42.3400 2672.8025
42.3600 2486.2275
42.3800 2798.6475
42.4000 2778.7400
42.4200 2611.5550
42.4400 2448.1375
42.4600 2295.1725
42.4800 2250.0000
42.5000 2310.4850
42.5200 2187.8675
42.5400 2091.8725
42.5600 2264.2225
42.5800 2298.1000
42.6000 2299.4875
42.6200 2147.2675
42.6400 2222.1000
42.6600 2384.6800
42.6800 2239.7800
42.7000 2043.7100
42.7200 2040.5950
42.7400 2099.2525
42.7600 2051.5625
42.7800 2130.4825
42.8000 2218.7375
42.8200 2476.7225
42.8400 2424.6275
42.8600 2244.0350
42.8800 2156.8625
42.9000 2192.5875
42.9200 2079.7075
42.9400 1919.3650
42.9600 2025.3675
42.9800 2070.7800
43.0000 2226.8600
43.0200 2116.1950
43.0400 1989.3025
43.0600 1983.3325
43.0800 1967.3200
43.1000 2118.3050
43.1200 2107.1200
43.1400 1900.9925
43.1600 1981.4725
43.1800 2181.2200
43.2000 2162.0800
43.2200 2058.3625
43.2400 2046.1800
43.2600 2105.9425
43.2800 2133.3325
43.3000 2112.2150
43.3200 2026.1625
43.3400 2030.7525
43.3600 2037.2800
43.3800 1982.9325
43.4000 1989.8525
43.4200 2003.0850
43.4400 2083.8850
43.4600 2075.7200
43.4800 2088.7600
43.5000 2017.3450
43.5200 1989.6675
43.5400 1945.7275
43.5600 2064.6950
43.5800 2205.1950
43.6000 2228.1325
43.6200 2199.0150
43.6400 2219.6750
43.6600 2194.9850
43.6800 2151.1225
43.7000 2152.0200
43.7200 2251.4225
43.7400 2117.1650
43.7600 2144.5275
43.7800 2367.4075
43.8000 2439.6975
43.8200 2345.8375
43.8400 2276.2400
43.8600 2431.0500
43.8800 2476.8800
43.9000 2472.4300
43.9200 2573.6225
43.9400 2584.0600
43.9600 2440.7450
43.9800 2473.9275
44.0000 2623.3125
44.0200 2552.6475
44.0400 2566.6775
44.0600 2716.5925
44.0800 2708.9125
44.1000 2783.4800
44.1200 2878.6300
44.1400 2658.4750
44.1600 2726.1125
44.1800 2831.2475
44.2000 2767.8925
44.2200 2827.5250
44.2400 2787.4625
44.2600 2684.6700
44.2800 2688.5525
44.3000 2844.1925
44.3200 2953.4425
44.3400 2831.0575
44.3600 2952.4225
44.3800 3011.4525
44.4000 2843.1300
44.4200 2861.7475
44.4400 2850.0050
44.4600 2750.0475
44.4800 2861.3950
44.5000 2823.7100
44.5200 2768.2050
44.5400 2921.0700
44.5600 3137.6200
44.5800 3130.6050
44.6000 3210.6125
44.6200 3288.4975
44.6400 3121.4025
44.6600 3135.4750
44.6800 3310.6400
44.7000 3271.2275
44.7200 3076.5700
44.7400 2991.6675
44.7600 3021.2375
44.7800 3071.2125
44.8000 3076.9075
44.8200 3204.3000
44.8400 3250.8875
44.8600 3265.7350
44.8800 3231.3625
44.9000 3222.5200
44.9200 3269.5775
44.9400 3219.7650
44.9600 3243.4000
44.9800 3257.4975
45.0000 3233.3325
45.0200 3213.8400
45.0400 3263.2950
45.0600 2987.2625
45.0800 3083.9900
45.1000 3321.5225
45.1200 3276.4775
45.1400 3324.0850
45.1600 3359.1125
45.1800 3394.9075
45.2000 3322.1075
45.2200 3203.0125
45.2400 3401.9100
45.2600 3475.0125
45.2800 3408.3325
45.3000 3355.3600
45.3200 3311.8550
45.3400 3351.6050
45.3600 3268.0400
45.3800 3260.1325
45.4000 3359.8300
45.4200 3458.7550
45.4400 3546.6400
45.4600 3555.8625
45.4800 3422.1550
45.5000 3352.4400
45.5200 3314.1675
45.5400 3232.0800
45.5600 3304.8300
45.5800 3240.4950
45.6000 3247.5125
45.6200 3342.8400
45.6400 3463.9975
45.6600 3379.1400
45.6800 3231.0300
45.7000 3074.5075
45.7200 3089.7750
45.7400 3013.0075
45.7600 3001.5225
45.7800 3044.4275
45.8000 2833.6850
45.8200 2846.2125
45.8400 2887.6400
45.8600 2725.0200
45.8800 2740.4875
45.9000 2788.4550
45.9200 2588.1225
45.9400 2675.3600
45.9600 2760.8625
45.9800 2841.6800
46.0000 2775.6425
46.0200 2726.9500
46.0400 2842.0975
46.0600 2697.3925
46.0800 2483.6075
46.1000 2481.0025
46.1200 2604.2800
46.1400 2708.6075
46.1600 2662.5025
46.1800 2604.6525
46.2000 2636.2325
46.2200 2463.1775
46.2400 2447.6300
46.2600 2567.6125
46.2800 2449.8150
46.3000 2396.3325
46.3200 2447.2225
46.3400 2518.4800
46.3600 2723.8600
46.3800 2674.4350
46.4000 2565.6525
46.4200 2587.0525
46.4400 2597.1650
46.4600 2714.3000
46.4800 2684.9000
46.5000 2706.6875
46.5200 2731.0350
46.5400 2812.8375
46.5600 2874.4950
46.5800 2847.0975
46.6000 2794.1400
46.6200 2833.3100
46.6400 3036.5475
46.6600 3100.4825
46.6800 3148.9800
46.7000 3070.4275
46.7200 3118.9775
46.7400 3281.1525
46.7600 3354.7325
46.7800 3349.8625
46.8000 3440.4300
46.8200 3554.5525
46.8400 3617.4725
46.8600 3784.8700
46.8800 3760.6625
46.9000 3694.6575
46.9200 3906.5050
46.9400 4130.8900
46.9600 4159.9425
46.9800 4260.1500
47.0000 4221.8250
47.0200 4145.2350
47.0400 4368.6850
47.0600 4389.4600
47.0800 4600.0975
47.1000 4726.0875
47.1200 4590.9800
47.1400 4529.2475
47.1600 4645.4925
47.1800 4715.8075
47.2000 4617.8425
47.2200 4641.7875
47.2400 4678.1850
47.2600 4527.4400
47.2800 4349.9825
47.3000 4192.3350
47.3200 4234.5025
47.3400 4399.2900
47.3600 4235.6625
47.3800 3977.7700
47.4000 3805.4475
47.4200 3846.3200
47.4400 3864.5000
47.4600 3792.2650
47.4800 3741.9750
47.5000 3785.3475
47.5200 3830.9975
47.5400 3621.7550
47.5600 3702.7150
47.5800 3863.8200
47.6000 3727.1225
47.6200 3619.4325
47.6400 3551.1125
47.6600 3490.5650
47.6800 3590.4300
47.7000 3536.3600
47.7200 3448.7850
47.7400 3487.2350
47.7600 3518.7775
47.7800 3660.7075
47.8000 3656.5325
47.8200 3553.3950
47.8400 3501.8725
47.8600 3422.4725
47.8800 3436.3425
47.9000 3421.5200
47.9200 3344.6025
47.9400 3386.7525
47.9600 3587.1575
47.9800 3593.2800
48.0000 3606.6625
48.0200 3738.6800
48.0400 3859.5450
48.0600 3910.4150
48.0800 3883.7925
48.1000 3931.2150
48.1200 4107.2225
48.1400 4141.1350
48.1600 4198.7625
48.1800 4246.0450
48.2000 4306.5325
48.2200 4517.0325
48.2400 4464.2025
48.2600 4245.3350
48.2800 4132.0725
48.3000 4121.4575
48.3200 4063.3650
48.3400 3965.0300
48.3600 4025.0875
48.3800 4147.6400
48.4000 4109.1175
48.4200 4107.1225
48.4400 4070.7025
48.4600 3948.4525
48.4800 3973.3275
48.5000 3903.0125
48.5200 3778.6025
48.5400 3701.3700
48.5600 3802.6700
48.5800 3823.8575
48.6000 3712.6825
48.6200 3647.1250
48.6400 3778.8450
48.6600 3736.8400
48.6800 3641.8675
48.7000 3763.3650
48.7200 3752.9675
48.7400 3772.7000
48.7600 3695.2900
48.7800 3509.6675
48.8000 3437.3350
48.8200 3506.9450
48.8400 3605.3000
48.8600 3603.0450
48.8800 3635.5575
48.9000 3678.6950
48.9200 3623.4425
48.9400 3782.0975
48.9600 3996.9025
48.9800 3951.5950
49.0000 3848.8000
49.0200 3902.9675
49.0400 3797.8475
49.0600 3762.9900
49.0800 4008.0575
49.1000 4095.1200
49.1200 3889.7550
49.1400 3768.3450
49.1600 4079.2875
49.1800 4316.3925
49.2000 4226.5850
49.2200 4227.4225
49.2400 4355.8975
49.2600 4511.4975
49.2800 4578.2525
49.3000 4515.6325
49.3200 4315.8425
49.3400 4437.4025
49.3600 4811.5950
49.3800 4916.6675
49.4000 4985.3000
49.4200 5101.4600
49.4400 5119.9900
49.4600 5173.1000
49.4800 5275.7075
49.5000 5287.1500
49.5200 5561.9225
49.5400 5940.3650
49.5600 6191.4700
49.5800 6307.6600
49.6000 6309.0000
49.6200 6615.5950
49.6400 6759.3425
49.6600 6778.4500
49.6800 6891.2400
49.7000 6998.8950
49.7200 7253.3450
49.7400 7613.9200
49.7600 7820.5250
49.7800 7774.1900
49.8000 7716.0650
49.8200 7614.8800
49.8400 7464.8975
49.8600 7489.7375
49.8800 7672.8550
49.9000 7749.8100
49.9200 7775.7550
49.9400 7748.6925
49.9600 7640.5575
49.9800 7642.7650
50.0000 7576.7225
50.0200 7385.7975
50.0400 7146.6300
50.0600 6987.4125
50.0800 6940.7975
50.1000 7129.6425
50.1200 7350.0000
50.1400 7179.9650
50.1600 7280.1700
50.1800 7584.3225
50.2000 7323.2050
50.2200 6991.0200
50.2400 6932.8525
50.2600 6984.7600
50.2800 7266.3400
50.3000 7453.9350
50.3200 7335.5800
50.3400 7267.2750
50.3600 7295.7575
50.3800 7359.5250
50.4000 7408.0375
50.4200 7370.4675
50.4400 7244.0275
50.4600 7027.2350
50.4800 6831.9175
50.5000 6796.6050
50.5200 6905.2075
50.5400 7021.7275
50.5600 6808.2150
50.5800 6655.8500
50.6000 6813.3675
50.6200 6684.6625
50.6400 6478.7100
50.6600 6636.1800
50.6800 6440.1325
50.7000 6180.7525
50.7200 6283.3325
50.7400 6012.6850
50.7600 5881.0775
50.7800 5708.1675
50.8000 5450.4825
50.8200 5263.5550
50.8400 5134.5175
50.8600 5178.6375
50.8800 5158.5650
50.9000 5094.7400
50.9200 4763.2425
50.9400 4613.8000
50.9600 4594.3225
50.9800 4500.2225
51.0000 4419.5700
51.0200 4211.0300
51.0400 4247.7225
51.0600 4260.8425
51.0800 3998.3050
51.1000 3837.1325
51.1200 3909.5825
51.1400 3860.6950
51.1600 3598.5675
51.1800 3504.4200
51.2000 3626.2075
51.2200 3602.7225
51.2400 3584.5200
51.2600 3565.2950
51.2800 3458.4300
51.3000 3407.6575
51.3200 3290.9975
51.3400 3288.1175
51.3600 3324.8125
51.3800 3266.2000
51.4000 3073.3325
51.4200 2912.3625
51.4400 2900.0000
51.4600 2857.8800
51.4800 2782.9750
51.5000 2821.5900
51.5200 2908.5100
51.5400 2933.4200
51.5600 2844.8300
51.5800 2775.2600
51.6000 2892.6125
51.6200 2852.8425
51.6400 2809.1800
51.6600 2857.9975
51.6800 2892.3350
51.7000 2903.6275
51.7200 2820.5450
51.7400 2804.2900
51.7600 2606.2950
51.7800 2496.7650
51.8000 2545.3900
51.8200 2432.6925
51.8400 2421.3500
51.8600 2504.4450
51.8800 2617.4550
51.9000 2657.9425
51.9200 2490.4975
51.9400 2551.7075
51.9600 2615.5875
51.9800 2428.5150
52.0000 2370.9475
52.0200 2513.6800
52.0400 2570.1900
52.0600 2495.7950
52.0800 2487.4625
52.1000 2516.9650
52.1200 2646.6900
52.1400 2628.1650
52.1600 2596.5350
52.1800 2540.4875
52.2000 2509.2150
52.2200 2570.5050
52.2400 2608.9900
52.2600 2632.8975
52.2800 2511.8850
52.3000 2458.4775
52.3200 2420.3650
52.3400 2471.7325
52.3600 2511.9625
52.3800 2563.4650
52.4000 2721.2250
52.4200 2758.2625
52.4400 2750.0000
52.4600 2724.7875
52.4800 2742.0200
52.5000 2648.8700
52.5200 2672.1400
52.5400 2761.9725
52.5600 2721.0100
52.5800 2863.5200
52.6000 2974.9300
52.6200 3029.6925
52.6400 2965.6150
52.6600 2896.2900
52.6800 2924.7900
52.7000 2862.1850
52.7200 2871.2175
52.7400 3017.5075
52.7600 3087.2550
52.7800 3104.5525
52.8000 3246.6400
52.8200 3434.1050
52.8400 3474.5800
52.8600 3441.8075
52.8800 3391.1050
52.9000 3451.0550
52.9200 3633.8250
52.9400 3830.3275
52.9600 3731.3600
52.9800 3634.4625
53.0000 3783.4750
53.0200 3938.6675
53.0400 3986.7550
53.0600 3900.0000
53.0800 4021.8650
53.1000 4154.2725
53.1200 4154.0600
53.1400 4196.2975
53.1600 4401.2900
53.1800 4608.8350
53.2000 4603.6275
53.2200 4692.9650
53.2400 4887.8975
53.2600 4710.5800
53.2800 4437.0275
53.3000 4694.3625
53.3200 5046.2350
53.3400 5226.1725
53.3600 5324.7075
53.3800 5094.1025
53.4000 5160.6225
53.4200 5496.5375
53.4400 5436.2725
53.4600 5266.3675
53.4800 5140.8450
53.5000 5424.1725
53.5200 5669.7425
53.5400 5625.6800
53.5600 5590.6800
53.5800 5546.4050
53.6000 5520.0325
53.6200 5542.6625
53.6400 5523.8475
53.6600 5505.1325
53.6800 5511.6100
53.7000 5534.4225
53.7200 5679.4400
53.7400 5603.1875
53.7600 5314.9350
53.7800 5171.1900
53.8000 5414.4425
53.8200 5540.9500
53.8400 5475.0800
53.8600 5613.7450
53.8800 5670.1475
53.9000 5642.0725
53.9200 5742.2350
53.9400 5774.7550
53.9600 5808.9075
53.9800 5841.4200
54.0000 5816.6675
54.0200 5871.3725
54.0400 5769.2900
54.0600 5671.3775
54.0800 5623.9900
54.1000 5613.3875
54.1200 5704.2100
54.1400 5611.5200
54.1600 5752.3950
54.1800 5924.3975
54.2000 5921.3950
54.2200 5970.7900
54.2400 6004.5575
54.2600 5995.3525
54.2800 5823.6825
54.3000 5767.3725
54.3200 5770.1675
54.3400 5822.0350
54.3600 5815.4150
54.3800 5750.5400
54.4000 5960.0475
54.4200 6040.8500
54.4400 6008.7875
54.4600 6045.7875
54.4800 6088.0050
54.5000 6057.5025
54.5200 6307.7325
54.5400 6418.5525
54.5600 6225.0925
54.5800 6144.8475
54.6000 6134.1825
54.6200 6199.9050
54.6400 6326.5225
54.6600 6352.9725
54.6800 6313.2200
54.7000 6463.5125
54.7200 6503.6350
54.7400 6449.9025
54.7600 6382.6500
54.7800 6350.2950
54.8000 6442.4550
54.8200 6284.8800
54.8400 6412.4025
54.8600 6539.1750
54.8800 6270.0825
54.9000 6048.0900
54.9200 6009.7450
54.9400 6403.3425
54.9600 6464.1250
54.9800 6241.4625
55.0000 6389.5000
55.0200 6545.7825
55.0400 6541.6675
55.0600 6642.9125
55.0800 6788.0725
55.1000 6580.1950
55.1200 6405.0600
55.1400 6622.6775
55.1600 6728.6900
55.1800 6628.3700
55.2000 6701.7050
55.2200 6740.4900
55.2400 6603.5750
55.2600 6435.9375
55.2800 6574.1325
55.3000 6816.5575
55.3200 6791.4500
55.3400 6787.6650
55.3600 6745.1200
55.3800 6577.6800
55.4000 6766.4225
55.4200 6995.0025
55.4400 7085.3350
55.4600 7064.4350
55.4800 7030.9025
55.5000 7145.6650
55.5200 7044.6500
55.5400 6793.6275
55.5600 6726.2475
55.5800 6833.5600
55.6000 6909.1325
55.6200 6911.7550
55.6400 6972.3825
55.6600 6901.6900
55.6800 6826.3850
55.7000 6743.3425
55.7200 6718.7575
55.7400 6866.6675
55.7600 6921.5925
55.7800 6915.8475
55.8000 6630.1625
55.8200 6336.5000
55.8400 6363.8575
55.8600 6263.9450
55.8800 6087.6775
55.9000 6078.8700
55.9200 5939.9975
55.9400 5643.2625
55.9600 5546.9725
55.9800 5485.5175
56.0000 5290.8250
56.0200 5182.6100
56.0400 4938.8850
56.0600 4690.8175
56.0800 4586.8325
56.1000 4444.4350
56.1200 4341.5450
56.1400 4206.5000
56.1600 4062.1950
56.1800 3889.4600
56.2000 3817.7725
56.2200 3730.9950
56.2400 3553.8575
56.2600 3414.9375
56.2800 3219.6575
56.3000 3128.9800
56.3200 3366.1600
56.3400 3422.2675
56.3600 3178.2325
56.3800 2998.2550
56.4000 2862.1875
56.4200 2896.6450
56.4400 2954.2300
56.4600 2949.8750
56.4800 2806.3250
56.5000 2653.8525
56.5200 2646.0225
56.5400 2565.2825
56.5600 2555.3650
56.5800 2654.4825
56.6000 2476.1975
56.6200 2393.3100
56.6400 2550.7600
56.6600 2621.1500
56.6800 2527.4550
56.7000 2433.5875
56.7200 2450.0000
56.7400 2450.0000
56.7600 2441.5400
56.7800 2399.4900
56.8000 2480.8875
56.8200 2540.9025
56.8400 2453.5925
56.8600 2454.7400
56.8800 2500.1275
56.9000 2423.7225
56.9200 2257.0550
56.9400 2234.2275
56.9600 2342.4350
56.9800 2277.4375
57.0000 2217.4350
57.0200 2270.8975
57.0400 2279.2300
57.0600 2224.1025
57.0800 2230.1275
57.1000 2223.9725
57.1200 2255.6425
57.1400 2197.6900
57.1600 2011.9225
57.1800 2080.7725
57.2000 2217.1800
57.2200 2182.3050
57.2400 2103.9750
57.2600 2121.2825
57.2800 2145.7700
57.3000 2057.0475
57.3200 2114.6200
57.3400 2228.8450
57.3600 2136.4075
57.3800 2075.1275
57.4000 2134.1050
57.4200 2217.1800
57.4400 2279.6150
57.4600 2215.2550
57.4800 2201.1550
57.5000 2232.6925
57.5200 2157.8200
57.5400 2171.5400
57.5600 2309.7450
57.5800 2391.5375
57.6000 2273.3325
57.6200 2272.4350
57.6400 2320.0000
57.6600 2342.8200
57.6800 2293.9775
57.7000 2196.1525
57.7200 2326.6625
57.7400 2314.8775
57.7600 2161.9250
57.7800 2129.2300
57.8000 2133.3325
57.8200 2112.1800
57.8400 2074.7450
57.8600 2147.1725
57.8800 2246.0250
57.9000 2199.1100
57.9200 2281.2650
57.9400 2357.4425
57.9600 2211.1650
57.9800 2188.4525
58.0000 2207.6975
58.0200 2204.7375
58.0400 2220.5175
58.0600 2208.4600
58.0800 2254.7375
58.1000 2291.6675
58.1200 2317.0450
58.1400 2299.3675
58.1600 2300.6300
58.1800 2257.0725
58.2000 2200.3775
58.2200 2309.5925
58.2400 2205.5650
58.2600 2109.5900
58.2800 2208.5850
58.3000 2313.8175
58.3200 2332.3300
58.3400 2198.9975
58.3600 2167.1675
58.3800 2195.7700
58.4000 2200.1250
58.4200 2259.0825
58.4400 2367.5400
58.4600 2323.5050
58.4800 2309.5775
58.5000 2370.5225
58.5200 2345.7700
58.5400 2320.5225
58.5600 2261.9425
58.5800 2356.0875
58.6000 2407.2200
58.6200 2371.3900
58.6400 2382.9625
58.6600 2417.5300
58.6800 2496.1425
58.7000 2478.6125
58.7200 2483.9475
58.7400 2592.6500
58.7600 2506.1225
58.7800 2455.5775
58.8000 2545.7725
58.8200 2605.0850
58.8400 2696.2600
58.8600 2644.6725
58.8800 2494.7975
58.9000 2585.6500
58.9200 2602.1575
58.9400 2593.4900
58.9600 2720.8950
58.9800 2750.3650
59.0000 2741.1825
59.0200 2687.1975
59.0400 2687.8025
59.0600 2919.6875
59.0800 2930.5575
59.1000 2851.5675
59.1200 2810.3925
59.1400 2823.0575
59.1600 3034.1750
59.1800 3095.8925
59.2000 3201.4375
59.2200 3245.0550
59.2400 3191.6675
59.2600 3200.1200
59.2800 3119.5800
59.3000 3126.3125
59.3200 3195.5350
59.3400 3191.9050
59.3600 3140.7150
59.3800 3066.5475
59.4000 3003.3950
59.4200 3157.0700
59.4400 3240.0100
59.4600 3239.0950
59.4800 3404.9350
59.5000 3449.8825
59.5200 3369.8325
59.5400 3316.9025
59.5600 3346.0100
59.5800 3273.8250
59.6000 3250.8225
59.6200 3422.4150
59.6400 3550.2350
59.6600 3524.4150
59.6800 3436.8575
59.7000 3518.4175
59.7200 3578.2925
59.7400 3825.0875
59.7600 3947.5550
59.7800 3842.5975
59.8000 3844.9625
59.8200 3791.7825
59.8400 3800.0000
59.8600 3821.1225
59.8800 3719.1550
59.9000 3701.3875
59.9200 3736.6325
59.9400 3835.5275
59.9600 3962.0950
59.9800 3857.2950
60.0000 3897.3875
60.0200 3868.9350
60.0400 3952.9900
60.0600 4128.6500
60.0800 4100.1150
60.1000 4133.6775
60.1200 3959.8050
60.1400 3897.6100
60.1600 4215.0775
60.1800 4446.4625
60.2000 4191.7725
60.2200 3992.9250
60.2400 4041.0950
60.2600 3970.4350
60.2800 3954.3375
60.3000 4042.6925
60.3200 4065.9825
60.3400 4101.1375
60.3600 4090.4150
60.3800 3995.7775
60.4000 4160.6075
60.4200 4147.6125
60.4400 4110.1500
60.4600 4250.1125
60.4800 4271.0025
60.5000 4249.5450
60.5200 4144.8700
60.5400 4083.4475
60.5600 4163.4625
60.5800 4106.6350
60.6000 3957.9925
60.6200 3958.6725
60.6400 4004.4500
60.6600 4088.3500
60.6800 4171.1150
60.7000 4132.5425
60.7200 4218.5900
60.7400 4240.0825
60.7600 4086.9900
60.7800 4278.0550
60.8000 4339.5175
60.8200 4174.8875
60.8400 4322.9250
60.8600 4322.9650
60.8800 4280.5800
60.9000 4281.9750
60.9200 3976.3950
60.9400 4129.7525
60.9600 4356.7500
60.9800 4216.3275
61.0000 3988.9500
61.0200 4121.0850
61.0400 4310.7450
61.0600 4090.4200
61.0800 4054.9025
61.1000 4099.8875
61.1200 4112.7825
61.1400 4150.2275
61.1600 4166.6675
61.1800 4204.6775
61.2000 4482.4075
61.2200 4640.6425
61.2400 4499.0900
61.2600 4289.7300
61.2800 4145.7775
61.3000 4192.3500
61.3200 4254.3375
61.3400 4173.7425
61.3600 4155.1375
61.3800 4351.7175
61.4000 4394.7450
61.4200 4396.9225
61.4400 4424.3125
61.4600 4303.1900
61.4800 4300.9200
61.5000 4451.1500
61.5200 4516.4375
61.5400 4461.9800
61.5600 4188.4325
61.5800 4152.6600
61.6000 4126.2150
61.6200 3942.0150
61.6400 3979.3400
61.6600 4202.9050
61.6800 4332.2850
61.7000 4211.8600
61.7200 4014.5650
61.7400 3934.2675
61.7600 3885.9200
61.7800 3897.5325
61.8000 4105.4000
61.8200 4229.6950
61.8400 4215.9600
61.8600 4166.6675
61.8800 4407.5350
61.9000 4282.4675
61.9200 3992.4975
61.9400 4181.0100
61.9600 4270.2975
61.9800 4292.5025
62.0000 4341.5475
62.0200 4316.4275
62.0400 4249.2800
62.0600 4216.9075
62.0800 4330.5525
62.1000 4391.1825
62.1200 4303.3800
62.1400 4279.5925
62.1600 4308.3325
62.1800 4367.5200
62.2000 4327.7625
62.2200 4305.2075
62.2400 4366.5450
62.2600 4197.6625
62.2800 4105.0925
62.3000 4141.2950
62.3200 4023.6350
62.3400 4060.1975
62.3600 4204.4775
62.3800 4267.2925
62.4000 4232.2050
62.4200 4217.5475
62.4400 4181.9475
62.4600 4083.2075
62.4800 3939.6375
62.5000 3825.2550
62.5200 3909.3525
62.5400 3970.7700
62.5600 3898.9725
62.5800 3871.4125
62.6000 3904.1025
62.6200 3756.1325
62.6400 3477.0225
62.6600 3477.0850
62.6800 3684.5100
62.7000 3830.2825
62.7200 3603.7250
62.7400 3414.0200
62.7600 3521.0325
62.7800 3486.7675
62.8000 3530.5675
62.8200 3553.1625
62.8400 3415.4575
62.8600 3252.7500
62.8800 3060.8075
62.9000 3157.3600
62.9200 3248.3625
62.9400 3128.8250
62.9600 3205.7475
62.9800 3316.9425
63.0000 3248.6150
63.0200 2980.2750
63.0400 2944.0375
63.0600 3074.8600
63.0800 3185.3025
63.1000 3211.0175
63.1200 3108.0500
63.1400 3083.1900
63.1600 3007.1900
63.1800 2886.5675
63.2000 2833.3325
63.2200 2680.7275
63.2400 2732.5825
63.2600 2865.6450
63.2800 2863.4525
63.3000 2865.7825
63.3200 2867.5550
63.3400 2751.2700
63.3600 2553.4950
63.3800 2584.5325
63.4000 2518.5000
63.4200 2395.9100
63.4400 2501.8225
63.4600 2404.8250
63.4800 2339.7225
63.5000 2369.2175
63.5200 2338.5050
63.5400 2391.6675
63.5600 2327.9950
63.5800 2215.7250
63.6000 2226.1025
63.6200 2155.9575
63.6400 2063.0575
63.6600 2176.6000
63.6800 2232.8525
63.7000 2165.8600
63.7200 2001.8150
63.7400 2023.5250
63.7600 2115.8475
63.7800 2049.5050
63.8000 1991.0050
63.8200 1954.0825
63.8400 1864.9950
63.8600 1851.3450
63.8800 1916.6675
63.9000 1920.9175
63.9200 1907.9925
63.9400 1887.4150
63.9600 1862.0700
63.9800 1879.9475
64.0000 1929.4275
64.0200 1996.9725
64.0400 1896.8300
64.0600 1745.7450
64.0800 1741.6675
64.1000 1822.5325
64.1200 1895.7425
64.1400 1798.0100
64.1600 1733.8800
64.1800 1728.5275
64.2000 1866.0850
64.2200 1867.4150
64.2400 1729.4450
64.2600 1822.6075
64.2800 1844.6125
64.3000 1783.1450
64.3200 1711.0750
64.3400 1586.0675
64.3600 1576.1525
64.3800 1654.8425
64.4000 1725.9700
64.4200 1775.1950
64.4400 1651.1225
64.4600 1597.5125
64.4800 1751.9875
64.5000 1777.8675
64.5200 1780.4725
64.5400 1816.2625
64.5600 1774.3900
64.5800 1814.0325
64.6000 1768.2625
64.6200 1717.9075
64.6400 1702.6075
64.6600 1637.3950
64.6800 1735.8575
64.7000 1799.1525
64.7200 1664.1125
64.7400 1588.0350
64.7600 1629.7050
64.7800 1620.0750
64.8000 1685.7300
64.8200 1792.1050
64.8400 1778.3950
64.8600 1711.5025
64.8800 1687.8350
64.9000 1725.6725
64.9200 1677.2475
64.9400 1634.0150
64.9600 1722.5475
64.9800 1710.5475
65.0000 1650.2300
65.0200 1555.5425
65.0400 1591.1275
65.0600 1652.4025
65.0800 1578.8125
65.1000 1660.9525
65.1200 1707.1350
65.1400 1658.0925
65.1600 1645.7125
65.1800 1624.5125
65.2000 1646.9375
65.2200 1627.5625
65.2400 1592.1625
65.2600 1604.0425
65.2800 1634.3400
65.3000 1632.3200
65.3200 1582.8250
65.3400 1570.9625
65.3600 1570.7050
65.3800 1549.4825
65.4000 1610.6800
65.4200 1747.8025
65.4400 1636.3850
65.4600 1453.5025
65.4800 1579.5450
65.5000 1677.9575
65.5200 1706.1950
65.5400 1749.4550
65.5600 1776.3700
65.5800 1605.7475
65.6000 1494.4400
65.6200 1630.9800
65.6400 1773.7800
65.6600 1772.1750
65.6800 1708.9025
65.7000 1742.2375
65.7200 1663.5025
65.7400 1618.1150
65.7600 1787.7025
65.7800 1740.1175
65.8000 1635.1025
65.8200 1661.7575
65.8400 1719.3525
65.8600 1826.2025
65.8800 1845.3800
65.9000 1803.1025
65.9200 1809.5575
65.9400 1858.9500
65.9600 1762.6400
65.9800 1718.8475
66.0000 1697.1775
66.0200 1689.8675
66.0400 1750.0000
66.0600 1788.9375
66.0800 1799.0350
66.1000 1852.9100
66.1200 1816.7650
66.1400 1829.2575
66.1600 1890.0200
66.1800 1793.6775
66.2000 1845.6700
66.2200 1950.3350
66.2400 1845.6100
66.2600 1759.0125
66.2800 1857.4150
66.3000 1881.2700
66.3200 1828.9925
66.3400 1859.7250
66.3600 1922.0600
66.3800 1923.9425
66.4000 1900.0000
66.4200 1869.5850
66.4400 1767.7825
66.4600 1799.9875
66.4800 1848.1825
66.5000 1830.0800
66.5200 1897.8575
66.5400 1893.7975
66.5600 1854.3525
66.5800 1814.7925
66.6000 1862.1050
66.6200 1963.4475
66.6400 1970.2600
66.6600 2010.6375
66.6800 2036.5350
66.7000 1994.8625
66.7200 1992.4500
66.7400 1890.5200
66.7600 1888.0850
66.7800 1996.4300
66.8000 1955.9300
66.8200 1847.1775
66.8400 1870.3175
66.8600 2055.3050
66.8800 2066.5225
66.9000 1935.2275
66.9200 2044.7725
66.9400 2038.9350
66.9600 1987.1200
66.9800 1988.2800
67.0000 2003.8325
67.0200 2018.0500
67.0400 2014.8700
67.0600 2010.1150
67.0800 1997.3600
67.1000 2086.4050
67.1200 2150.4425
67.1400 2158.3325
67.1600 2074.9225
67.1800 2052.6975
67.2000 2130.7500
67.2200 2017.7225
67.2400 2001.5525
67.2600 2020.8575
67.2800 1936.8050
67.3000 2012.9925
67.3200 1959.6375
67.3400 1934.1175
67.3600 2179.6075
67.3800 2162.0075
67.4000 2034.2925
67.4200 2050.0000
67.4400 2005.9050
67.4600 1944.6125
67.4800 2039.7225
67.5000 2119.5975
67.5200 2020.5250
67.5400 1950.0000
67.5600 2025.1100
67.5800 1959.0750
67.6000 1965.4625
67.6200 2021.9275
67.6400 1988.2725
67.6600 2008.8525
67.6800 2153.9125
67.7000 2093.4175
67.7200 1880.1700
67.7400 1837.7650
67.7600 1730.8300
67.7800 1757.5150
67.8000 1844.4825
67.8200 1842.7525
67.8400 1840.5750
67.8600 1793.9100
67.8800 1904.3975
67.9000 2025.0000
67.9200 2020.5550
67.9400 2007.7700
67.9600 2084.5375
67.9800 2029.2525
68.0000 1805.3500
68.0200 1770.6950
68.0400 1874.0150
68.0600 1858.7175
68.0800 1901.9800
68.1000 1996.7175
68.1200 1892.3025
68.1400 1782.7375
68.1600 1792.8650
68.1800 1853.0125
68.2000 1815.6850
68.2200 1750.0000
68.2400 1848.4050
68.2600 1888.5850
68.2800 1711.2300
68.3000 1712.5800
68.3200 1839.0675
68.3400 1826.9600
68.3600 1764.1325
68.3800 1715.3925
68.4000 1682.0525
68.4200 1742.9800
68.4400 1740.9725
68.4600 1723.7675
68.4800 1762.8275
68.5000 1802.6375
68.5200 1824.3375
68.5400 1762.6675
68.5600 1779.6925
68.5800 1815.3175
68.6000 1867.5850
68.6200 1861.8950
68.6400 1875.9750
68.6600 1906.2650
68.6800 1811.1225
68.7000 1772.5750
68.7200 1710.3600
68.7400 1777.2375
68.7600 1733.4325
68.7800 1667.8425
68.8000 1684.2750
68.8200 1726.9550
68.8400 1805.2525
68.8600 1807.6050
68.8800 1745.6075
68.9000 1854.1825
68.9200 1983.3325
68.9400 2033.2600
68.9600 1984.1825
68.9800 1917.4200
69.0000 1893.1850
69.0200 1803.0075
69.0400 1877.3750
69.0600 1933.2700
69.0800 1805.1550
69.1000 1824.4400
69.1200 1840.7525
69.1400 1787.1075
69.1600 1819.8275
69.1800 1808.9250
69.2000 1848.0550
69.2200 1958.5825
69.2400 1972.5800
69.2600 1968.2900
69.2800 1928.4400
69.3000 1901.6400
69.3200 1866.3000
69.3400 1907.4600
69.3600 1952.0825
69.3800 1914.9925
69.4000 1822.0100
69.4200 1822.5925
69.4400 1980.6200
69.4600 1983.9675
69.4800 1889.0875
69.5000 1843.6725
69.5200 1884.8150
69.5400 2048.4200
69.5600 2072.5800
69.5800 2012.0575
69.6000 1999.1125
69.6200 2111.5975
69.6400 2106.8025
69.6600 2117.3475
69.6800 2150.0900
69.7000 2033.4700
69.7200 2068.4025
69.7400 2140.7475
69.7600 2137.9625
69.7800 2141.6675
69.8000 2113.8625
69.8200 2216.8450
69.8400 2103.2875
69.8600 2081.8475
69.8800 2153.5650
69.9000 2121.3125
69.9200 2222.6150
69.9400 2193.0300
69.9600 2136.2525
69.9800 2228.1700
70.0000 2152.9025
70.0200 2180.5000
70.0400 2269.3425
70.0600 2258.3325
70.0800 2314.3525
70.1000 2325.6375
70.1200 2314.0200
70.1400 2194.0775
70.1600 2161.8425
70.1800 2282.1975
70.2000 2234.9825
70.2200 2303.5975
70.2400 2322.8950
70.2600 2334.4400
70.2800 2296.7375
70.3000 2118.0450
70.3200 2046.3650
70.3400 2040.5975
70.3600 2047.4450
70.3800 2208.9500
70.4000 2259.0675
70.4200 2175.3500
70.4400 2272.5825
70.4600 2220.4275
70.4800 2160.2550
70.5000 2034.7025
70.5200 2154.0575
70.5400 2176.1825
70.5600 2111.5000
70.5800 2153.6000
70.6000 2097.9000
70.6200 2167.3300
70.6400 2240.5175
70.6600 2233.3325
70.6800 2394.7400
70.7000 2454.9175
70.7200 2260.9975
70.7400 2240.3550
70.7600 2408.2600
70.7800 2373.8275
70.8000 2172.5675
70.8200 2169.1350
70.8400 2338.2650
70.8600 2421.4400
70.8800 2362.9225
70.9000 2316.6675
70.9200 2345.3525
70.9400 2366.6675
70.9600 2337.9475
70.9800 2297.5075
71.0000 2307.2950
71.0200 2353.7725
71.0400 2207.0600
71.0600 2294.5850
71.0800 2382.7425
71.1000 2232.3850
71.1200 2139.0925
71.1400 2230.8825
71.1600 2322.7800
71.1800 2241.7750
71.2000 2261.7925
71.2200 2310.5250
71.2400 2386.9000
71.2600 2435.5075
71.2800 2410.5000
71.3000 2491.8975
71.3200 2350.2250
71.3400 2364.6550
71.3600 2381.5725
71.3800 2419.8575
71.4000 2369.0000
71.4200 2289.5650
71.4400 2348.5800
71.4600 2383.3325
71.4800 2320.1000
71.5000 2459.9550
71.5200 2508.8700
71.5400 2532.8500
71.5600 2445.3700
71.5800 2273.3500
71.6000 2405.6650
71.6200 2401.4125
71.6400 2362.1125
71.6600 2400.0000
71.6800 2404.8950
71.7000 2418.1300
71.7200 2483.8200
71.7400 2564.2400
71.7600 2483.6875
71.7800 2467.2700
71.8000 2414.9575
71.8200 2443.4375
71.8400 2345.9400
71.8600 2361.3625
71.8800 2528.8400
71.9000 2529.0950
71.9200 2328.8450
71.9400 2310.4750
71.9600 2261.3675
71.9800 2336.5900
72.0000 2461.4550
72.0200 2291.8375
72.0400 2280.6000
72.0600 2353.3775
72.0800 2483.9275
72.1000 2376.4550
72.1200 2221.8000
72.1400 2307.7400
72.1600 2141.2375
72.1800 2172.4600
72.2000 2250.1950
72.2200 2276.4725
72.2400 2231.8850
72.2600 2334.6975
72.2800 2356.7700
72.3000 2344.9750
72.3200 2259.9825
72.3400 2213.3575
72.3600 2103.1350
72.3800 2016.6675
72.4000 2076.8400
72.4200 2171.8650
72.4400 2127.9900
72.4600 1989.5775
72.4800 2018.8150
72.5000 2024.6825
72.5200 1926.2075
72.5400 1999.2250
72.5600 2014.4925
72.5800 1985.0925
72.6000 1845.2350
72.6200 1846.0050
72.6400 2100.4775
72.6600 2159.2200
72.6800 1954.6325
72.7000 1905.7375
72.7200 1992.3725
72.7400 2014.8525
72.7600 1998.1775
72.7800 1900.2000
72.8000 2024.7275
72.8200 2034.8050
72.8400 1956.4825
72.8600 1914.3300
72.8800 2003.8550
72.9000 1983.1425
72.9200 2057.7775
72.9400 2172.3300
72.9600 1941.0750
72.9800 1890.8075
73.0000 2040.2775
73.0200 2137.7925
73.0400 2105.1200
73.0600 2092.3300
73.0800 2000.4725
73.1000 1964.1725
73.1200 1942.1850
73.1400 1973.2875
73.1600 1941.3675
73.1800 1951.5500
73.2000 2055.5550
73.2200 2048.3750
73.2400 1934.0075
73.2600 1898.8425
73.2800 2089.4150
73.3000 2117.1600
73.3200 2025.2150
73.3400 1932.5925
73.3600 1990.2575
73.3800 2070.7700
73.4000 2182.0700
73.4200 2200.0625
73.4400 2081.3225
73.4600 2009.3750
73.4800 2026.0600
73.5000 2145.9850
73.5200 2067.4000
73.5400 2077.3600
73.5600 2039.2375
73.5800 2082.7300
73.6000 2010.7825
73.6200 2011.9225
73.6400 2084.5500
73.6600 2047.5300
73.6800 2000.9125
73.7000 2107.2750
73.7200 2159.2225
73.7400 2128.9475
73.7600 2053.4650
73.7800 2006.1250
73.8000 1984.1750
73.8200 2006.6725
73.8400 2051.4150
73.8600 2161.8300
73.8800 2110.8500
73.9000 1928.2200
73.9200 1868.9300
73.9400 1970.4525
73.9600 2025.0000
73.9800 1993.1350
74.0000 2038.7800
74.0200 2053.7225
74.0400 1972.4650
74.0600 2013.2425
74.0800 1962.3700
74.1000 1919.0050
74.1200 1914.3200
74.1400 1870.9275
74.1600 1967.6500
74.1800 1915.5925
74.2000 1887.4925
74.2200 1999.4550
74.2400 2076.8225
74.2600 2054.0875
74.2800 1915.1375
74.3000 1887.6375
74.3200 1908.3325
74.3400 1972.9550
74.3600 2002.9450
74.3800 2032.3600
74.4000 2157.9525
74.4200 2060.0125
74.4400 1953.3750
74.4600 1995.7700
74.4800 1954.6100
74.5000 2003.3675
74.5200 2039.1550
74.5400 1984.4875
74.5600 2045.2375
74.5800 1906.8475
74.6000 1846.4150
74.6200 1975.5550
74.6400 1973.3975
74.6600 2045.2725
74.6800 2034.5125
74.7000 1972.6925
74.7200 1958.3325
74.7400 1980.2150
74.7600 1953.3450
74.7800 2103.1800
74.8000 2186.1825
74.8200 2183.3325
74.8400 2161.3650
74.8600 2150.0000
74.8800 2326.0250
74.9000 2356.1100
74.9200 2336.0200
74.9400 2220.3600
74.9600 2202.4800
74.9800 2296.7950
75.0000 2283.5900
75.0200 2335.7750
75.0400 2375.0000
75.0600 2308.5150
75.0800 2313.8150
75.1000 2444.3200
75.1200 2455.5700
75.1400 2422.2175
75.1600 2438.9175
75.1800 2405.4625
75.2000 2489.1975
75.2200 2541.6675
75.2400 2541.6675
75.2600 2614.2750
75.2800 2566.1525
75.3000 2541.7825
75.3200 2522.0050
75.3400 2592.3850
75.3600 2627.7250
75.3800 2720.4125
75.4000 2761.0500
75.4200 2657.1425
75.4400 2805.2525
75.4600 2747.9675
75.4800 2765.1675
75.5000 2644.7725
75.5200 2645.6925
75.5400 2649.4375
75.5600 2757.7175
75.5800 2612.9625
75.6000 2646.9175
75.6200 2867.0300
75.6400 2850.9075
75.6600 2774.2700
75.6800 2877.6500
75.7000 3052.7475
75.7200 3045.7325
75.7400 2971.1000
75.7600 2995.6025
75.7800 2942.5000
75.8000 3056.7900
75.8200 3107.8575
75.8400 3403.1225
75.8600 3198.2275
75.8800 3093.2250
75.9000 3191.2025
75.9200 3081.5450
75.9400 3085.5825
75.9600 3260.3600
75.9800 3428.5450
76.0000 3187.1350
76.0200 3150.5275
76.0400 3387.7400
76.0600 3382.6525
76.0800 3382.1025
76.1000 3532.9700
76.1200 3406.5125
76.1400 3406.0725
76.1600 3580.7650
76.1800 3479.2500
76.2000 3559.2750
76.2200 3764.4475
76.2400 3662.1775
76.2600 3498.5475
76.2800 3569.0050
76.3000 3645.8150
76.3200 3646.6650
76.3400 3589.1100
76.3600 3572.5100
76.3800 3516.5075
76.4000 3579.4800
76.4200 3727.9900
76.4400 3593.2125
76.4600 3651.6550
76.4800 3972.6600
76.5000 3842.2975
76.5200 3494.5450
76.5400 3468.2200
76.5600 3723.9625
76.5800 3810.7675
76.6000 3713.8750
76.6200 3669.0925
76.6400 3761.2850
76.6600 3752.6500
76.6800 3644.4775
76.7000 3703.1925
76.7200 3575.5225
76.7400 3478.6400
76.7600 3383.4550
76.7800 3468.9750
76.8000 3558.3425
76.8200 3563.0825
76.8400 3385.3800
76.8600 3328.6050
76.8800 3416.9700
76.9000 3384.2300
76.9200 3376.2850
76.9400 3431.2475
76.9600 3372.0750
76.9800 3335.6675
77.0000 3201.2375
77.0200 3264.1800
77.0400 3416.5950
77.0600 3055.0150
77.0800 3032.5450
77.1000 2962.7350
77.1200 3091.6800
77.1400 3037.5325
77.1600 2822.4000
77.1800 2933.7925
77.2000 3036.3325
77.2200 2995.4550
77.2400 2865.8175
77.2600 2788.5750
77.2800 2817.5325
77.3000 2766.4400
77.3200 2662.5450
77.3400 2523.6875
77.3600 2660.1350
77.3800 2462.6250
77.4000 2647.5850
77.4200 2554.4125
77.4400 2495.5675
77.4600 2542.8575
77.4800 2509.3125
77.5000 2411.9400
77.5200 2444.7125
77.5400 2515.8125
77.5600 2545.6300
77.5800 2297.7075
77.6000 2282.2375
77.6200 2252.8575
77.6400 2159.3050
77.6600 2176.5525
77.6800 2284.3575
77.7000 2446.5450
77.7200 2330.7300
77.7400 2312.1700
77.7600 2182.3925
77.7800 2027.8400
77.8000 2128.3025
77.8200 2100.4100
77.8400 2137.2125
77.8600 2195.6925
77.8800 2077.4700
77.9000 2108.1750
77.9200 2089.6400
77.9400 1993.7850
77.9600 2016.6875
77.9800 2020.8175
78.0000 1947.7750
78.0200 1943.8050
78.0400 1937.4525
78.0600 1895.6625
78.0800 2140.9700
78.1000 2023.7500
78.1200 2191.2225
78.1400 2178.4725
78.1600 2206.7425
78.1800 1966.2900
78.2000 1965.4325
78.2200 1979.0250
78.2400 2101.5150
78.2600 2021.3775
78.2800 1843.9375
78.3000 1863.4150
78.3200 1927.7600
78.3400 2075.0575
78.3600 2186.5950
78.3800 1941.1125
78.4000 1775.5550
78.4200 1730.8825
78.4400 1941.8550
78.4600 2046.6325
78.4800 2045.5550
78.5000 1913.7900
78.5200 1958.1875
78.5400 1944.9075
78.5600 1907.6950
78.5800 1919.2450
78.6000 1796.6000
78.6200 1861.1375
78.6400 1885.2350
78.6600 1806.1050
78.6800 1789.7750
78.7000 1869.0200
78.7200 1820.7025
78.7400 1890.3925
78.7600 1936.0525
78.7800 1825.2600
78.8000 1707.5275
78.8200 1605.6050
78.8400 1738.9175
78.8600 1828.7475
78.8800 1828.6800
78.9000 1669.0400
78.9200 1703.0425
78.9400 1640.3875
78.9600 1812.0850
78.9800 1853.6275
79.0000 1778.2325
79.0200 1653.8600
79.0400 1494.3050
79.0600 1719.9300
79.0800 1765.4850
79.1000 1660.0775
79.1200 1548.1125
79.1400 1649.6525
79.1600 1735.8600
79.1800 1592.2950
79.2000 1720.9825
79.2200 1779.8300
79.2400 1829.4400
79.2600 1788.9325
79.2800 1821.1775
79.3000 1747.5075
79.3200 1639.1075
79.3400 1722.4650
79.3600 1703.6775
79.3800 1625.4400
79.4000 1760.7725
79.4200 1673.9750
79.4400 1741.2375
79.4600 1720.1650
79.4800 1794.7625
79.5000 1929.7750
79.5200 1865.1125
79.5400 1695.0650
79.5600 1751.6975
79.5800 1694.9125
79.6000 1708.3950
79.6200 1536.1950
79.6400 1765.9250
79.6600 1572.2550
79.6800 1689.2175
79.7000 1632.7675
79.7200 1534.5275
79.7400 1563.6700
79.7600 1709.3925
79.7800 1687.8700
79.8000 1701.9200
79.8200 1735.2725
79.8400 1714.7075
79.8600 1667.8625
79.8800 1732.5825
79.9000 1763.5100
79.9200 1773.4275
79.9400 1727.6450
79.9600 1811.4475
79.9800 1630.0825
80.0000 1637.5750
