*FILE_COMMENT ""
*FILE_MD5 ""
*FILE_MEMO ""
*FILE_OPERATOR "Administrator"
*FILE_PACKAGE_NAME ""
*FILE_PART_ID "GeneralMeasurement"
*FILE_SAMPLE ""
*FILE_SYSTEM_NAME "MiniFlex"
*FILE_TYPE "RAS_RAW"
*FILE_USERGROUP "Administrators"
*FILE_VERSION "1"
*HW_ATTACHMENT_NAME_INTERNAL "ASC8"
*HW_COUNTER_ID-0 "CUT0025"
*HW_COUNTER_ID-2 "CMC0020"
*HW_COUNTER_MONOCHRO_ID "CMC0020"
*HW_COUNTER_MONOCHRO_NAME "None"
*HW_COUNTER_MONOCHRO_NAME_INTERNAL "None"
*HW_COUNTER_NAME_INTERNAL "DteX100"
*HW_COUNTER_NAME-0 "DteX100"
*HW_COUNTER_NAME-1 "None"
*HW_COUNTER_NAME-2 "None"
*HW_COUNTER_PIXEL_SIZE "0.1"
*HW_COUNTER_SELECT_NAME "DteX100"
*HW_GONIOMETER_ID "GON0021"
*HW_GONIOMETER_NAME "Standard"
*HW_GONIOMETER_NAME_INTERNAL "Standard"
*HW_GONIOMETER_RADIUS-0 "90.0"
*HW_GONIOMETER_RADIUS-1 "114.0"
*HW_GONIOMETER_RADIUS-2 "91.5"
*HW_GONIOMETER_RADIUS-3 "150.0"
*HW_GONIOMETER_RADIUS-4 "103.4"
*HW_GONIOMETER_RADIUS-5 "150.0"
*HW_GONIOMETER_RADIUS-6 "46.6"
*HW_GONIOMETER_RADIUS-7 "150.0"
*HW_I_CBO_ID "CBO0020"
*HW_I_CBO_NAME "No_unit"
*HW_I_CBO_NAME_INTERNAL "No_unit"
*HW_I_MONOCHRO_NAME_INTERNAL "Manual"
*HW_I_OPT_ID-1 "CBO0020"
*HW_I_PRIMARY_NAME_INTERNAL "No_unit"
*HW_I_SLIT_NAME_INTERNAL "Manual"
*HW_R_ATTENUATER_AUTOMODE "0"
*HW_R_ATTENUATER_ID "ATN0020"
*HW_R_ATTENUATER_NAME "No_unit"
*HW_R_ATTENUATOR_NAME_INTERNAL "No_unit"
*HW_R_OPT_ID-1 "RCR0023"
*HW_R_OPT_ID-4 "ATN0020"
*HW_R_ROD_ID "RCR0023"
*HW_R_ROD_NAME "No_unit"
*HW_R_ROD_NAME_INTERNAL "No_unit"
*HW_R_RPS_NAME_INTERNAL "Manual"
*HW_R_RS_NAME_INTERNAL "Manual"
*HW_R_SS_NAME_INTERNAL "Manual"
*HW_SAMPLE_HOLDER_NAME_INTERNAL "None"
*HW_SAMPLE_NAME "None"
*HW_SAMPLE_NAME_INTERNAL "None"
*HW_SAMPLE_PLATE_NAME "None"
*HW_SAMPLE_PLATE_NAME_INTERNAL "None"
*HW_SAMPLE_SPACER_NAME "None"
*HW_SAMPLE_SPACER_NAME_INTERNAL "None"
*HW_USERINFO_CATALOG_NO ""
*HW_USERINFO_INSTRUMENT_ID ""
*HW_USERINFO_INSTRUMENT_NAME ""
*HW_USERINFO_INSTRUMENT_NO ""
*HW_USERINFO_MODEL ""
*HW_USERINFO_ORDER_NO ""
*HW_USERINFO_SERIAL_NO ""
*HW_USERINFO_VERIFY_INSTRUMENT_ID "00-07-fe-03-00-df"
*HW_VER_RCD_COUNTER_UNIT "N/A"
*HW_VER_RCD_CPU "10.0.1"
*HW_VER_RCD_FPGA "3.0.1"
*HW_VER_RCD_GONIO_UNIT "0.0.0"
*HW_VER_RCD_INCIDENT_UNIT "0.0.0"
*HW_VER_RCD_RECEIVING_UNIT "0.0.0"
*HW_VER_RCD_TYPE "RINCII"
*HW_VER_XGC_CPU "10.0.1"
*HW_VER_XGC_CW "5.0.0"
*HW_VER_XGC_HV "5.0.0"
*HW_VER_XGC_RS1 "5.0.0"
*HW_VER_XGC_RS2 "N/A"
*HW_VER_XGC_RT "N/A"
*HW_VER_XGC_TYPE "RINCII"
*HW_XG_CURRENT_UNIT "mA"
*HW_XG_FOCUS "0.4mm x 8mm"
*HW_XG_FOCUS_TYPE "Fine"
*HW_XG_TARGET_ATOMIC_NUMBER "29"
*HW_XG_TARGET_NAME "Cu"
*HW_XG_TYPE "Hermetic"
*HW_XG_VOLTAGE_UNIT "kV"
*HW_XG_WAVE_LENGTH_ALPHA1 "1.540593"
*HW_XG_WAVE_LENGTH_ALPHA2 "1.544414"
*HW_XG_WAVE_LENGTH_BETA "1.392246"
*HW_XG_WAVE_LENGTH_UNIT "Angstrom"
*MEAS_COND_AXIS_NAME_INTERNAL-0 "TwoThetaTheta"
*MEAS_COND_AXIS_NAME_INTERNAL-1 "IncidentSollerSlit"
*MEAS_COND_AXIS_NAME_INTERNAL-10 "Changer"
*MEAS_COND_AXIS_NAME_INTERNAL-11 "ReceivingSlitBox1"
*MEAS_COND_AXIS_NAME_INTERNAL-12 "ReceivingSlitBox1"
*MEAS_COND_AXIS_NAME_INTERNAL-13 "ReceivingSlitBox1"
*MEAS_COND_AXIS_NAME_INTERNAL-14 "Filter"
*MEAS_COND_AXIS_NAME_INTERNAL-15 "ReceivingSollerSlit"
*MEAS_COND_AXIS_NAME_INTERNAL-16 "ReceivingSlitBox2"
*MEAS_COND_AXIS_NAME_INTERNAL-17 "ReceivingSlitBox2"
*MEAS_COND_AXIS_NAME_INTERNAL-18 "ReceivingSlitBox2"
*MEAS_COND_AXIS_NAME_INTERNAL-19 "PHA"
*MEAS_COND_AXIS_NAME_INTERNAL-2 "IncidentSlitBox"
*MEAS_COND_AXIS_NAME_INTERNAL-20 "RS3"
*MEAS_COND_AXIS_NAME_INTERNAL-21 "Target_TargetTime"
*MEAS_COND_AXIS_NAME_INTERNAL-22 "Target_XrayOnTime"
*MEAS_COND_AXIS_NAME_INTERNAL-23 "Target_TMPTime"
*MEAS_COND_AXIS_NAME_INTERNAL-24 "Target_RPTime"
*MEAS_COND_AXIS_NAME_INTERNAL-25 "Target_FilamentTime"
*MEAS_COND_AXIS_NAME_INTERNAL-26 "Target_IG"
*MEAS_COND_AXIS_NAME_INTERNAL-27 "Target_GP"
*MEAS_COND_AXIS_NAME_INTERNAL-28 "Target_FC"
*MEAS_COND_AXIS_NAME_INTERNAL-29 "HVPS_Bias"
*MEAS_COND_AXIS_NAME_INTERNAL-3 "IncidentSlitBox"
*MEAS_COND_AXIS_NAME_INTERNAL-30 "HVPS_HVPSTime"
*MEAS_COND_AXIS_NAME_INTERNAL-31 "HVPS_Type1Time"
*MEAS_COND_AXIS_NAME_INTERNAL-32 "HVPS_Type2Time"
*MEAS_COND_AXIS_NAME_INTERNAL-33 "HVPS_Type3Time"
*MEAS_COND_AXIS_NAME_INTERNAL-34 "CW_IERTime"
*MEAS_COND_AXIS_NAME_INTERNAL-35 "CW_ECTime"
*MEAS_COND_AXIS_NAME_INTERNAL-36 "CW_Flow1"
*MEAS_COND_AXIS_NAME_INTERNAL-37 "CW_Temperature1"
*MEAS_COND_AXIS_NAME_INTERNAL-38 "CW_Pressure1"
*MEAS_COND_AXIS_NAME_INTERNAL-39 "CW_PressureIn"
*MEAS_COND_AXIS_NAME_INTERNAL-4 "IncidentSlitBox"
*MEAS_COND_AXIS_NAME_INTERNAL-40 "CW_PressureOut"
*MEAS_COND_AXIS_NAME_INTERNAL-41 "CW_Flow2"
*MEAS_COND_AXIS_NAME_INTERNAL-42 "CW_Temperature2"
*MEAS_COND_AXIS_NAME_INTERNAL-43 "CW_Pressure2"
*MEAS_COND_AXIS_NAME_INTERNAL-44 "RE_EnclosureTemp"
*MEAS_COND_AXIS_NAME_INTERNAL-45 "RE_EnclosureHummidity"
*MEAS_COND_AXIS_NAME_INTERNAL-46 "RE_CabinetTemp"
*MEAS_COND_AXIS_NAME_INTERNAL-47 "RE_RPTemp"
*MEAS_COND_AXIS_NAME_INTERNAL-48 "RE_ShutterAXrayOnTime"
*MEAS_COND_AXIS_NAME_INTERNAL-49 "RE_ShutterATimes"
*MEAS_COND_AXIS_NAME_INTERNAL-5 "IncidentAxdSlit"
*MEAS_COND_AXIS_NAME_INTERNAL-50 "RE_ShutterAOpenCloseTime"
*MEAS_COND_AXIS_NAME_INTERNAL-51 "RE_ShutterACloseOpenTime"
*MEAS_COND_AXIS_NAME_INTERNAL-52 "RE_ShutterBXrayOnTime"
*MEAS_COND_AXIS_NAME_INTERNAL-53 "RE_ShutterBTimes"
*MEAS_COND_AXIS_NAME_INTERNAL-54 "RE_ShutterBOpenCloseTime"
*MEAS_COND_AXIS_NAME_INTERNAL-55 "RE_ShutterBCloseOpenTime"
*MEAS_COND_AXIS_NAME_INTERNAL-56 "RE_XrayWarningRamp"
*MEAS_COND_AXIS_NAME_INTERNAL-57 "RE_ShutterAInstallation"
*MEAS_COND_AXIS_NAME_INTERNAL-58 "RE_ShutterARamp"
*MEAS_COND_AXIS_NAME_INTERNAL-59 "RE_ShutterBInstallation"
*MEAS_COND_AXIS_NAME_INTERNAL-6 "IncidentAxdSlit"
*MEAS_COND_AXIS_NAME_INTERNAL-60 "RE_ShutterBRamp"
*MEAS_COND_AXIS_NAME_INTERNAL-61 "RE_ExtShutterCLS"
*MEAS_COND_AXIS_NAME_INTERNAL-62 "RE_ExtXrayOFF"
*MEAS_COND_AXIS_NAME_INTERNAL-63 "RE_ExtSafetyCircuit"
*MEAS_COND_AXIS_NAME_INTERNAL-64 "Version_CPU"
*MEAS_COND_AXIS_NAME_INTERNAL-65 "Version_RS1"
*MEAS_COND_AXIS_NAME_INTERNAL-66 "Version_RS2"
*MEAS_COND_AXIS_NAME_INTERNAL-67 "Version_HV"
*MEAS_COND_AXIS_NAME_INTERNAL-68 "Version_CW"
*MEAS_COND_AXIS_NAME_INTERNAL-69 "Version_RT"
*MEAS_COND_AXIS_NAME_INTERNAL-7 "IncidentAxdSlit"
*MEAS_COND_AXIS_NAME_INTERNAL-70 "IncidentPrimary"
*MEAS_COND_AXIS_NAME_INTERNAL-71 "IncidentMonochromator"
*MEAS_COND_AXIS_NAME_INTERNAL-72 "ReceivingOptics"
*MEAS_COND_AXIS_NAME_INTERNAL-73 "CounterMonochromatorKind"
*MEAS_COND_AXIS_NAME_INTERNAL-8 "Filter"
*MEAS_COND_AXIS_NAME_INTERNAL-9 "Beta"
*MEAS_COND_AXIS_NAME-0 "TwoThetaTheta"
*MEAS_COND_AXIS_NAME-1 "IncidentSollerSlit"
*MEAS_COND_AXIS_NAME-10 "Changer"
*MEAS_COND_AXIS_NAME-11 "ReceivingSlitBox1"
*MEAS_COND_AXIS_NAME-12 "ReceivingSlitBox1-_Axis"
*MEAS_COND_AXIS_NAME-13 "SlitSS"
*MEAS_COND_AXIS_NAME-14 "Filter"
*MEAS_COND_AXIS_NAME-15 "ReceivingSollerSlit"
*MEAS_COND_AXIS_NAME-16 "ReceivingSlitBox2"
*MEAS_COND_AXIS_NAME-17 "ReceivingSlitBox2-_Axis"
*MEAS_COND_AXIS_NAME-18 "SlitRS"
*MEAS_COND_AXIS_NAME-19 "PHA"
*MEAS_COND_AXIS_NAME-2 "IncidentSlitBox"
*MEAS_COND_AXIS_NAME-20 "RS3"
*MEAS_COND_AXIS_NAME-21 "Target_TargetTime"
*MEAS_COND_AXIS_NAME-22 "Target_XrayOnTime"
*MEAS_COND_AXIS_NAME-23 "Target_TMPTime"
*MEAS_COND_AXIS_NAME-24 "Target_RPTime"
*MEAS_COND_AXIS_NAME-25 "Target_FilamentTime"
*MEAS_COND_AXIS_NAME-26 "Target_IG"
*MEAS_COND_AXIS_NAME-27 "Target_GP"
*MEAS_COND_AXIS_NAME-28 "Target_FC"
*MEAS_COND_AXIS_NAME-29 "HVPS_Bias"
*MEAS_COND_AXIS_NAME-3 "IncidentSlitBox-_Axis"
*MEAS_COND_AXIS_NAME-30 "HVPS_HVPSTime"
*MEAS_COND_AXIS_NAME-31 "HVPS_Type1Time"
*MEAS_COND_AXIS_NAME-32 "HVPS_Type2Time"
*MEAS_COND_AXIS_NAME-33 "HVPS_Type3Time"
*MEAS_COND_AXIS_NAME-34 "CW_IERTime"
*MEAS_COND_AXIS_NAME-35 "CW_ECTime"
*MEAS_COND_AXIS_NAME-36 "CW_Flow1"
*MEAS_COND_AXIS_NAME-37 "CW_Temperature1"
*MEAS_COND_AXIS_NAME-38 "CW_Pressure1"
*MEAS_COND_AXIS_NAME-39 "CW_PressureIn"
*MEAS_COND_AXIS_NAME-4 "SlitDS"
*MEAS_COND_AXIS_NAME-40 "CW_PressureOut"
*MEAS_COND_AXIS_NAME-41 "CW_Flow2"
*MEAS_COND_AXIS_NAME-42 "CW_Temperature2"
*MEAS_COND_AXIS_NAME-43 "CW_Pressure2"
*MEAS_COND_AXIS_NAME-44 "RE_EnclosureTemp"
*MEAS_COND_AXIS_NAME-45 "RE_EnclosureHummidity"
*MEAS_COND_AXIS_NAME-46 "RE_CabinetTemp"
*MEAS_COND_AXIS_NAME-47 "RE_RPTemp"
*MEAS_COND_AXIS_NAME-48 "RE_ShutterAXrayOnTime"
*MEAS_COND_AXIS_NAME-49 "RE_ShutterATimes"
*MEAS_COND_AXIS_NAME-5 "IncidentAxdSlit"
*MEAS_COND_AXIS_NAME-50 "RE_ShutterAOpenCloseTime"
*MEAS_COND_AXIS_NAME-51 "RE_ShutterACloseOpenTime"
*MEAS_COND_AXIS_NAME-52 "RE_ShutterBXrayOnTime"
*MEAS_COND_AXIS_NAME-53 "RE_ShutterBTimes"
*MEAS_COND_AXIS_NAME-54 "RE_ShutterBOpenCloseTime"
*MEAS_COND_AXIS_NAME-55 "RE_ShutterBCloseOpenTime"
*MEAS_COND_AXIS_NAME-56 "RE_XrayWarningRamp"
*MEAS_COND_AXIS_NAME-57 "RE_ShutterAInstallation"
*MEAS_COND_AXIS_NAME-58 "RE_ShutterARamp"
*MEAS_COND_AXIS_NAME-59 "RE_ShutterBInstallation"
*MEAS_COND_AXIS_NAME-6 "LLS"
*MEAS_COND_AXIS_NAME-60 "RE_ShutterBRamp"
*MEAS_COND_AXIS_NAME-61 "RE_ExtShutterCLS"
*MEAS_COND_AXIS_NAME-62 "RE_ExtXrayOFF"
*MEAS_COND_AXIS_NAME-63 "RE_ExtSafetyCircuit"
*MEAS_COND_AXIS_NAME-64 "Version_CPU"
*MEAS_COND_AXIS_NAME-65 "Version_RS1"
*MEAS_COND_AXIS_NAME-66 "Version_RS2"
*MEAS_COND_AXIS_NAME-67 "Version_HV"
*MEAS_COND_AXIS_NAME-68 "Version_CW"
*MEAS_COND_AXIS_NAME-69 "Version_RT"
*MEAS_COND_AXIS_NAME-7 "DHLSlit"
*MEAS_COND_AXIS_NAME-70 "IncidentPrimary"
*MEAS_COND_AXIS_NAME-71 "IncidentMonochromator"
*MEAS_COND_AXIS_NAME-72 "ReceivingOptics"
*MEAS_COND_AXIS_NAME-73 "CounterMonochromatorKind"
*MEAS_COND_AXIS_NAME-8 "Filter"
*MEAS_COND_AXIS_NAME-9 "Beta"
*MEAS_COND_AXIS_OFFSET-0 "0"
*MEAS_COND_AXIS_OFFSET-1 "0"
*MEAS_COND_AXIS_OFFSET-10 "0"
*MEAS_COND_AXIS_OFFSET-11 "0"
*MEAS_COND_AXIS_OFFSET-12 "0"
*MEAS_COND_AXIS_OFFSET-13 "0"
*MEAS_COND_AXIS_OFFSET-14 "0"
*MEAS_COND_AXIS_OFFSET-15 "0"
*MEAS_COND_AXIS_OFFSET-16 "0"
*MEAS_COND_AXIS_OFFSET-17 "0"
*MEAS_COND_AXIS_OFFSET-18 "0"
*MEAS_COND_AXIS_OFFSET-19 "0"
*MEAS_COND_AXIS_OFFSET-2 "0"
*MEAS_COND_AXIS_OFFSET-20 "0"
*MEAS_COND_AXIS_OFFSET-21 "0"
*MEAS_COND_AXIS_OFFSET-22 "0"
*MEAS_COND_AXIS_OFFSET-23 "0"
*MEAS_COND_AXIS_OFFSET-24 "0"
*MEAS_COND_AXIS_OFFSET-25 "0"
*MEAS_COND_AXIS_OFFSET-26 "0"
*MEAS_COND_AXIS_OFFSET-27 "0"
*MEAS_COND_AXIS_OFFSET-28 "0"
*MEAS_COND_AXIS_OFFSET-29 "0"
*MEAS_COND_AXIS_OFFSET-3 "0"
*MEAS_COND_AXIS_OFFSET-30 "0"
*MEAS_COND_AXIS_OFFSET-31 "0"
*MEAS_COND_AXIS_OFFSET-32 "0"
*MEAS_COND_AXIS_OFFSET-33 "0"
*MEAS_COND_AXIS_OFFSET-34 "0"
*MEAS_COND_AXIS_OFFSET-35 "0"
*MEAS_COND_AXIS_OFFSET-36 "0"
*MEAS_COND_AXIS_OFFSET-37 "0"
*MEAS_COND_AXIS_OFFSET-38 "0"
*MEAS_COND_AXIS_OFFSET-39 "0"
*MEAS_COND_AXIS_OFFSET-4 "0"
*MEAS_COND_AXIS_OFFSET-40 "0"
*MEAS_COND_AXIS_OFFSET-41 "0"
*MEAS_COND_AXIS_OFFSET-42 "0"
*MEAS_COND_AXIS_OFFSET-43 "0"
*MEAS_COND_AXIS_OFFSET-44 "0"
*MEAS_COND_AXIS_OFFSET-45 "0"
*MEAS_COND_AXIS_OFFSET-46 "0"
*MEAS_COND_AXIS_OFFSET-47 "0"
*MEAS_COND_AXIS_OFFSET-48 "0"
*MEAS_COND_AXIS_OFFSET-49 "0"
*MEAS_COND_AXIS_OFFSET-5 "0"
*MEAS_COND_AXIS_OFFSET-50 "0"
*MEAS_COND_AXIS_OFFSET-51 "0"
*MEAS_COND_AXIS_OFFSET-52 "0"
*MEAS_COND_AXIS_OFFSET-53 "0"
*MEAS_COND_AXIS_OFFSET-54 "0"
*MEAS_COND_AXIS_OFFSET-55 "0"
*MEAS_COND_AXIS_OFFSET-56 "0"
*MEAS_COND_AXIS_OFFSET-57 "0"
*MEAS_COND_AXIS_OFFSET-58 "0"
*MEAS_COND_AXIS_OFFSET-59 "0"
*MEAS_COND_AXIS_OFFSET-6 "0"
*MEAS_COND_AXIS_OFFSET-60 "0"
*MEAS_COND_AXIS_OFFSET-61 "0"
*MEAS_COND_AXIS_OFFSET-62 "0"
*MEAS_COND_AXIS_OFFSET-63 "0"
*MEAS_COND_AXIS_OFFSET-64 "0"
*MEAS_COND_AXIS_OFFSET-65 "0"
*MEAS_COND_AXIS_OFFSET-66 "0"
*MEAS_COND_AXIS_OFFSET-67 "0"
*MEAS_COND_AXIS_OFFSET-68 "0"
*MEAS_COND_AXIS_OFFSET-69 "0"
*MEAS_COND_AXIS_OFFSET-7 "0"
*MEAS_COND_AXIS_OFFSET-70 "0"
*MEAS_COND_AXIS_OFFSET-71 "0"
*MEAS_COND_AXIS_OFFSET-72 "0"
*MEAS_COND_AXIS_OFFSET-73 "0"
*MEAS_COND_AXIS_OFFSET-8 "0"
*MEAS_COND_AXIS_OFFSET-9 "0"
*MEAS_COND_AXIS_POSITION-0 "12.0000"
*MEAS_COND_AXIS_POSITION-1 "Soller_slit_2.5deg"
*MEAS_COND_AXIS_POSITION-10 "5"
*MEAS_COND_AXIS_POSITION-11 "8.0mm"
*MEAS_COND_AXIS_POSITION-12 "8.0mm"
*MEAS_COND_AXIS_POSITION-13 "8.0mm"
*MEAS_COND_AXIS_POSITION-14 "K_beta_x1.5"
*MEAS_COND_AXIS_POSITION-15 "Soller_slit_2.5deg"
*MEAS_COND_AXIS_POSITION-16 "Open"
*MEAS_COND_AXIS_POSITION-17 "Open"
*MEAS_COND_AXIS_POSITION-18 "Open"
*MEAS_COND_AXIS_POSITION-19 "43"
*MEAS_COND_AXIS_POSITION-2 "1.25deg"
*MEAS_COND_AXIS_POSITION-20 "Open"
*MEAS_COND_AXIS_POSITION-3 "1.25deg"
*MEAS_COND_AXIS_POSITION-4 "1.25deg"
*MEAS_COND_AXIS_POSITION-5 "10mm"
*MEAS_COND_AXIS_POSITION-6 "10mm"
*MEAS_COND_AXIS_POSITION-7 "10mm"
*MEAS_COND_AXIS_POSITION-70 "No_unit"
*MEAS_COND_AXIS_POSITION-71 "Manual"
*MEAS_COND_AXIS_POSITION-72 "No_unit"
*MEAS_COND_AXIS_POSITION-73 "None"
*MEAS_COND_AXIS_POSITION-8 "None"
*MEAS_COND_AXIS_RESOLUTION-0 "0.0025"
*MEAS_COND_AXIS_RESOLUTION-1 ""
*MEAS_COND_AXIS_RESOLUTION-10 "1"
*MEAS_COND_AXIS_RESOLUTION-11 ""
*MEAS_COND_AXIS_RESOLUTION-12 ""
*MEAS_COND_AXIS_RESOLUTION-13 ""
*MEAS_COND_AXIS_RESOLUTION-14 ""
*MEAS_COND_AXIS_RESOLUTION-15 ""
*MEAS_COND_AXIS_RESOLUTION-16 ""
*MEAS_COND_AXIS_RESOLUTION-17 ""
*MEAS_COND_AXIS_RESOLUTION-18 ""
*MEAS_COND_AXIS_RESOLUTION-19 "1"
*MEAS_COND_AXIS_RESOLUTION-2 ""
*MEAS_COND_AXIS_RESOLUTION-20 "0.1"
*MEAS_COND_AXIS_RESOLUTION-21 "0.01"
*MEAS_COND_AXIS_RESOLUTION-22 "0.010000"
*MEAS_COND_AXIS_RESOLUTION-23 "0.01"
*MEAS_COND_AXIS_RESOLUTION-24 "0.01"
*MEAS_COND_AXIS_RESOLUTION-25 "0.01"
*MEAS_COND_AXIS_RESOLUTION-26 "1"
*MEAS_COND_AXIS_RESOLUTION-27 "1"
*MEAS_COND_AXIS_RESOLUTION-28 "0.01"
*MEAS_COND_AXIS_RESOLUTION-29 "1"
*MEAS_COND_AXIS_RESOLUTION-3 ""
*MEAS_COND_AXIS_RESOLUTION-30 "0.01"
*MEAS_COND_AXIS_RESOLUTION-31 "0.01"
*MEAS_COND_AXIS_RESOLUTION-32 "0.01"
*MEAS_COND_AXIS_RESOLUTION-33 "0.01"
*MEAS_COND_AXIS_RESOLUTION-34 "0.010000"
*MEAS_COND_AXIS_RESOLUTION-35 "1"
*MEAS_COND_AXIS_RESOLUTION-36 "0.100000"
*MEAS_COND_AXIS_RESOLUTION-37 "1.000000"
*MEAS_COND_AXIS_RESOLUTION-38 "0.010000"
*MEAS_COND_AXIS_RESOLUTION-39 "0.01"
*MEAS_COND_AXIS_RESOLUTION-4 ""
*MEAS_COND_AXIS_RESOLUTION-40 "0.01"
*MEAS_COND_AXIS_RESOLUTION-41 "0.1"
*MEAS_COND_AXIS_RESOLUTION-42 "1"
*MEAS_COND_AXIS_RESOLUTION-43 "0.01"
*MEAS_COND_AXIS_RESOLUTION-44 "1.000000"
*MEAS_COND_AXIS_RESOLUTION-45 "1"
*MEAS_COND_AXIS_RESOLUTION-46 "1.000000"
*MEAS_COND_AXIS_RESOLUTION-47 "1"
*MEAS_COND_AXIS_RESOLUTION-48 "0.01"
*MEAS_COND_AXIS_RESOLUTION-49 "1"
*MEAS_COND_AXIS_RESOLUTION-5 ""
*MEAS_COND_AXIS_RESOLUTION-50 "1"
*MEAS_COND_AXIS_RESOLUTION-51 "1"
*MEAS_COND_AXIS_RESOLUTION-52 "0.01"
*MEAS_COND_AXIS_RESOLUTION-53 "1.000000"
*MEAS_COND_AXIS_RESOLUTION-54 "1.000000"
*MEAS_COND_AXIS_RESOLUTION-55 "1.000000"
*MEAS_COND_AXIS_RESOLUTION-56 "-"
*MEAS_COND_AXIS_RESOLUTION-57 "-"
*MEAS_COND_AXIS_RESOLUTION-58 "-"
*MEAS_COND_AXIS_RESOLUTION-59 "1.000000"
*MEAS_COND_AXIS_RESOLUTION-6 ""
*MEAS_COND_AXIS_RESOLUTION-60 "-"
*MEAS_COND_AXIS_RESOLUTION-61 "-"
*MEAS_COND_AXIS_RESOLUTION-62 "-"
*MEAS_COND_AXIS_RESOLUTION-63 "1.000000"
*MEAS_COND_AXIS_RESOLUTION-64 "1.000000"
*MEAS_COND_AXIS_RESOLUTION-65 "1.000000"
*MEAS_COND_AXIS_RESOLUTION-66 "1.000000"
*MEAS_COND_AXIS_RESOLUTION-67 "1.000000"
*MEAS_COND_AXIS_RESOLUTION-68 "1.000000"
*MEAS_COND_AXIS_RESOLUTION-69 "1.000000"
*MEAS_COND_AXIS_RESOLUTION-7 ""
*MEAS_COND_AXIS_RESOLUTION-8 ""
*MEAS_COND_AXIS_RESOLUTION-9 "0.9"
*MEAS_COND_AXIS_SPEED_RESOLUTION-9 "0.1"
*MEAS_COND_AXIS_SPEED_UNIT-9 "rpm"
*MEAS_COND_AXIS_SPEED-9 "80"
*MEAS_COND_AXIS_STATE-0 "Scan"
*MEAS_COND_AXIS_STATE-1 "Fixed"
*MEAS_COND_AXIS_STATE-10 "Fixed"
*MEAS_COND_AXIS_STATE-11 "Fixed"
*MEAS_COND_AXIS_STATE-12 "Fixed"
*MEAS_COND_AXIS_STATE-13 "Fixed"
*MEAS_COND_AXIS_STATE-14 "Fixed"
*MEAS_COND_AXIS_STATE-15 "Fixed"
*MEAS_COND_AXIS_STATE-16 "Fixed"
*MEAS_COND_AXIS_STATE-17 "Fixed"
*MEAS_COND_AXIS_STATE-18 "Fixed"
*MEAS_COND_AXIS_STATE-19 "Fixed"
*MEAS_COND_AXIS_STATE-2 "Fixed"
*MEAS_COND_AXIS_STATE-20 "Fixed"
*MEAS_COND_AXIS_STATE-21 "Fixed"
*MEAS_COND_AXIS_STATE-22 "Fixed"
*MEAS_COND_AXIS_STATE-23 "Fixed"
*MEAS_COND_AXIS_STATE-24 "Fixed"
*MEAS_COND_AXIS_STATE-25 "Fixed"
*MEAS_COND_AXIS_STATE-26 "Fixed"
*MEAS_COND_AXIS_STATE-27 "Fixed"
*MEAS_COND_AXIS_STATE-28 "Fixed"
*MEAS_COND_AXIS_STATE-29 "Fixed"
*MEAS_COND_AXIS_STATE-3 "Fixed"
*MEAS_COND_AXIS_STATE-30 "Fixed"
*MEAS_COND_AXIS_STATE-31 "Fixed"
*MEAS_COND_AXIS_STATE-32 "Fixed"
*MEAS_COND_AXIS_STATE-33 "Fixed"
*MEAS_COND_AXIS_STATE-34 "Fixed"
*MEAS_COND_AXIS_STATE-35 "Fixed"
*MEAS_COND_AXIS_STATE-36 "Fixed"
*MEAS_COND_AXIS_STATE-37 "Fixed"
*MEAS_COND_AXIS_STATE-38 "Fixed"
*MEAS_COND_AXIS_STATE-39 "Fixed"
*MEAS_COND_AXIS_STATE-4 "Fixed"
*MEAS_COND_AXIS_STATE-40 "Fixed"
*MEAS_COND_AXIS_STATE-41 "Fixed"
*MEAS_COND_AXIS_STATE-42 "Fixed"
*MEAS_COND_AXIS_STATE-43 "Fixed"
*MEAS_COND_AXIS_STATE-44 "Fixed"
*MEAS_COND_AXIS_STATE-45 "Fixed"
*MEAS_COND_AXIS_STATE-46 "Fixed"
*MEAS_COND_AXIS_STATE-47 "Fixed"
*MEAS_COND_AXIS_STATE-48 "Fixed"
*MEAS_COND_AXIS_STATE-49 "Fixed"
*MEAS_COND_AXIS_STATE-5 "Fixed"
*MEAS_COND_AXIS_STATE-50 "Fixed"
*MEAS_COND_AXIS_STATE-51 "Fixed"
*MEAS_COND_AXIS_STATE-52 "Fixed"
*MEAS_COND_AXIS_STATE-53 "Fixed"
*MEAS_COND_AXIS_STATE-54 "Fixed"
*MEAS_COND_AXIS_STATE-55 "Fixed"
*MEAS_COND_AXIS_STATE-56 "Fixed"
*MEAS_COND_AXIS_STATE-57 "Fixed"
*MEAS_COND_AXIS_STATE-58 "Fixed"
*MEAS_COND_AXIS_STATE-59 "Fixed"
*MEAS_COND_AXIS_STATE-6 "Fixed"
*MEAS_COND_AXIS_STATE-60 "Fixed"
*MEAS_COND_AXIS_STATE-61 "Fixed"
*MEAS_COND_AXIS_STATE-62 "Fixed"
*MEAS_COND_AXIS_STATE-63 "Fixed"
*MEAS_COND_AXIS_STATE-64 "Fixed"
*MEAS_COND_AXIS_STATE-65 "Fixed"
*MEAS_COND_AXIS_STATE-66 "Fixed"
*MEAS_COND_AXIS_STATE-67 "Fixed"
*MEAS_COND_AXIS_STATE-68 "Fixed"
*MEAS_COND_AXIS_STATE-69 "Fixed"
*MEAS_COND_AXIS_STATE-7 "Fixed"
*MEAS_COND_AXIS_STATE-8 "Fixed"
*MEAS_COND_AXIS_STATE-9 "Rotation"
*MEAS_COND_AXIS_UNIT-0 "deg"
*MEAS_COND_AXIS_UNIT-1 ""
*MEAS_COND_AXIS_UNIT-10 ""
*MEAS_COND_AXIS_UNIT-11 ""
*MEAS_COND_AXIS_UNIT-12 ""
*MEAS_COND_AXIS_UNIT-13 ""
*MEAS_COND_AXIS_UNIT-14 ""
*MEAS_COND_AXIS_UNIT-15 ""
*MEAS_COND_AXIS_UNIT-16 ""
*MEAS_COND_AXIS_UNIT-17 ""
*MEAS_COND_AXIS_UNIT-18 ""
*MEAS_COND_AXIS_UNIT-19 "div"
*MEAS_COND_AXIS_UNIT-2 ""
*MEAS_COND_AXIS_UNIT-20 ""
*MEAS_COND_AXIS_UNIT-21 "H"
*MEAS_COND_AXIS_UNIT-22 "H"
*MEAS_COND_AXIS_UNIT-23 "H"
*MEAS_COND_AXIS_UNIT-24 "H"
*MEAS_COND_AXIS_UNIT-25 "H"
*MEAS_COND_AXIS_UNIT-26 "mV"
*MEAS_COND_AXIS_UNIT-27 "V"
*MEAS_COND_AXIS_UNIT-28 "V"
*MEAS_COND_AXIS_UNIT-29 "V"
*MEAS_COND_AXIS_UNIT-3 ""
*MEAS_COND_AXIS_UNIT-30 "H"
*MEAS_COND_AXIS_UNIT-31 "H"
*MEAS_COND_AXIS_UNIT-32 "H"
*MEAS_COND_AXIS_UNIT-33 "H"
*MEAS_COND_AXIS_UNIT-34 "H"
*MEAS_COND_AXIS_UNIT-35 "uS/m"
*MEAS_COND_AXIS_UNIT-36 "L/min"
*MEAS_COND_AXIS_UNIT-37 "degree"
*MEAS_COND_AXIS_UNIT-38 "MPa"
*MEAS_COND_AXIS_UNIT-39 "MPa"
*MEAS_COND_AXIS_UNIT-4 ""
*MEAS_COND_AXIS_UNIT-40 "MPa"
*MEAS_COND_AXIS_UNIT-41 "L/min"
*MEAS_COND_AXIS_UNIT-42 "C"
*MEAS_COND_AXIS_UNIT-43 "MPa"
*MEAS_COND_AXIS_UNIT-44 "degree"
*MEAS_COND_AXIS_UNIT-45 "percent"
*MEAS_COND_AXIS_UNIT-46 "degree"
*MEAS_COND_AXIS_UNIT-47 "C"
*MEAS_COND_AXIS_UNIT-48 "H"
*MEAS_COND_AXIS_UNIT-49 "time"
*MEAS_COND_AXIS_UNIT-5 ""
*MEAS_COND_AXIS_UNIT-50 "msec"
*MEAS_COND_AXIS_UNIT-51 "msec"
*MEAS_COND_AXIS_UNIT-52 "H"
*MEAS_COND_AXIS_UNIT-53 "times"
*MEAS_COND_AXIS_UNIT-54 "msec"
*MEAS_COND_AXIS_UNIT-55 "msec"
*MEAS_COND_AXIS_UNIT-56 "-"
*MEAS_COND_AXIS_UNIT-57 "-"
*MEAS_COND_AXIS_UNIT-58 "-"
*MEAS_COND_AXIS_UNIT-59 ""
*MEAS_COND_AXIS_UNIT-6 ""
*MEAS_COND_AXIS_UNIT-60 "-"
*MEAS_COND_AXIS_UNIT-61 "-"
*MEAS_COND_AXIS_UNIT-62 "-"
*MEAS_COND_AXIS_UNIT-63 ""
*MEAS_COND_AXIS_UNIT-64 ""
*MEAS_COND_AXIS_UNIT-65 ""
*MEAS_COND_AXIS_UNIT-66 ""
*MEAS_COND_AXIS_UNIT-67 ""
*MEAS_COND_AXIS_UNIT-68 ""
*MEAS_COND_AXIS_UNIT-69 ""
*MEAS_COND_AXIS_UNIT-7 ""
*MEAS_COND_AXIS_UNIT-70 ""
*MEAS_COND_AXIS_UNIT-71 ""
*MEAS_COND_AXIS_UNIT-72 ""
*MEAS_COND_AXIS_UNIT-73 ""
*MEAS_COND_AXIS_UNIT-8 ""
*MEAS_COND_AXIS_UNIT-9 "deg"
*MEAS_COND_COUNTER_CENTER_X "0.5"
*MEAS_COND_COUNTER_CENTER_Y "67.34"
*MEAS_COND_COUNTER_COUNTMODE "Differential"
*MEAS_COND_COUNTER_DEADTIMECORRECTION "Enabled"
*MEAS_COND_COUNTER_DISTANCE "150"
*MEAS_COND_COUNTER_ENERGYMODE "XRFReduction"
*MEAS_COND_COUNTER_PHA_UNIT "div"
*MEAS_COND_COUNTER_PHABASE "43"
*MEAS_COND_COUNTER_PHAWINDOW "21"
*MEAS_COND_COUNTER_PITCH_X "20"
*MEAS_COND_COUNTER_PITCH_Y "0.1"
*MEAS_COND_COUNTER_PITCHUNIT "mm"
*MEAS_COND_COUNTER_VALIDWIDTH_X "1"
*MEAS_COND_COUNTER_VALIDWIDTH_Y "200"
*MEAS_COND_XG_CURRENT "15"
*MEAS_COND_XG_VOLTAGE "40"
*MEAS_COND_XG_WAVE_TYPE "Ka"
*MEAS_DATA_COUNT "3751"
*MEAS_SCAN_AXIS_X "TwoThetaTheta"
*MEAS_SCAN_AXIS_X_INTERNAL "TwoThetaTheta"
*MEAS_SCAN_END_TIME "06/03/2024 13:22:35"
*MEAS_SCAN_MODE "CONTINUOUS"
*MEAS_SCAN_MODE_INTERNAL "TDI_1D"
*MEAS_SCAN_RESOLUTION_X "0.0025"
*MEAS_SCAN_SPEED "10.0000"
*MEAS_SCAN_SPEED_UNIT "deg/min"
*MEAS_SCAN_START "5.0000"
*MEAS_SCAN_START_TIME "06/03/2024 13:14:25"
*MEAS_SCAN_STEP "0.0200"
*MEAS_SCAN_STOP "80.0000"
*MEAS_SCAN_UNEQUALY_SPACED "False"
*MEAS_SCAN_UNIT_X "deg"
*MEAS_SCAN_UNIT_Y "cps"
#Intensity_unit=cps
#Attenuator_coefficient=1.0000
5.0000 1783.3325
5.0200 1783.3325
5.0400 1783.3325
5.0600 1762.2500
5.0800 1692.1250
5.1000 1691.5725
5.1200 1563.1450
5.1400 1571.1375
5.1600 1658.8125
5.1800 1704.0125
5.2000 1721.7675
5.2200 1627.2600
5.2400 1673.7325
5.2600 1740.6525
5.2800 1833.3075
5.3000 1634.3600
5.3200 1692.9200
5.3400 1728.6575
5.3600 1899.8575
5.3800 1686.8800
5.4000 1701.7725
5.4200 1703.0100
5.4400 1667.3550
5.4600 1658.0650
5.4800 1804.3525
5.5000 1663.1125
5.5200 1664.2275
5.5400 1722.0050
5.5600 1741.6675
5.5800 1711.4000
5.6000 1617.8100
5.6200 1686.8975
5.6400 1673.2650
5.6600 1614.2250
5.6800 1752.9825
5.7000 1704.7875
5.7200 1662.4600
5.7400 1814.9075
5.7600 1570.8325
5.7800 1729.7675
5.8000 1774.3875
5.8200 1691.1025
5.8400 1802.3425
5.8600 1674.4250
5.8800 1745.8525
5.9000 1784.5125
5.9200 1752.9650
5.9400 1724.3875
5.9600 1659.4525
5.9800 1597.1575
6.0000 1733.7575
6.0200 1565.0825
6.0400 1856.6150
6.0600 1884.3500
6.0800 1666.0425
6.1000 1658.4150
6.1200 1750.0000
6.1400 1739.2475
6.1600 1705.3750
6.1800 1730.3775
6.2000 1778.6775
6.2200 1852.8625
6.2400 1739.8750
6.2600 1718.9925
6.2800 1706.1025
6.3000 1787.2575
6.3200 1619.2825
6.3400 1807.6075
6.3600 1704.8450
6.3800 1763.6150
6.4000 1743.6500
6.4200 1904.6550
6.4400 1803.5850
6.4600 1762.9000
6.4800 1597.1325
6.5000 1724.4600
6.5200 1772.5825
6.5400 1745.8750
6.5600 1768.3775
6.5800 1683.3325
6.6000 1704.8250
6.6200 1785.1250
6.6400 1843.5900
6.6600 1967.0975
6.6800 1784.0650
6.7000 1953.4725
6.7200 1774.3875
6.7400 1748.8225
6.7600 1771.4225
6.7800 1758.3325
6.8000 1740.4550
6.8200 1662.4900
6.8400 1650.6175
6.8600 1773.2125
6.8800 1805.9575
6.9000 1958.9275
6.9200 1954.1825
6.9400 1802.3925
6.9600 1757.1350
6.9800 1767.2825
7.0000 1724.3775
7.0200 1765.5125
7.0400 1682.1850
7.0600 1657.6275
7.0800 1758.4850
7.1000 1630.1675
7.1200 1840.4500
7.1400 1880.8925
7.1600 1892.4500
7.1800 1787.8650
7.2000 1933.4675
7.2200 1878.9475
7.2400 1968.7550
7.2600 1830.6900
7.2800 1951.9525
7.3000 1863.1225
7.3200 1826.9725
7.3400 1759.3700
7.3600 1782.5300
7.3800 1653.2975
7.4000 1779.5450
7.4200 1847.7325
7.4400 1817.1625
7.4600 1830.5850
7.4800 1770.6800
7.5000 1837.8225
7.5200 1884.9525
7.5400 1803.6450
7.5600 1927.5875
7.5800 1843.3425
7.6000 1735.5475
7.6200 1769.7300
7.6400 1751.7550
7.6600 1788.1575
7.6800 1801.8175
7.7000 1452.6075
7.7200 1568.7725
7.7400 1726.3350
7.7600 1713.9875
7.7800 1785.8875
7.8000 1832.1425
7.8200 1715.8850
7.8400 1712.7675
7.8600 1981.3600
7.8800 2026.8800
7.9000 1765.6575
7.9200 1837.1675
7.9400 1864.2275
7.9600 1810.7575
7.9800 1871.1950
8.0000 1849.2600
8.0200 1936.4725
8.0400 1925.3175
8.0600 1960.0625
8.0800 1926.9450
8.1000 1785.3525
8.1200 1806.0350
8.1400 1772.9525
8.1600 1916.3950
8.1800 1866.1400
8.2000 1820.6150
8.2200 1898.2825
8.2400 1893.3825
8.2600 1920.5575
8.2800 1957.2125
8.3000 1791.6675
8.3200 1810.4575
8.3400 1861.1475
8.3600 1793.7525
8.3800 1824.0900
8.4000 1670.2425
8.4200 1788.0525
8.4400 1995.3550
8.4600 1720.0600
8.4800 1745.1950
8.5000 1769.6625
8.5200 1705.3125
8.5400 1789.9775
8.5600 1818.7625
8.5800 1933.0550
8.6000 1860.2675
8.6200 1956.5775
8.6400 1901.5500
8.6600 1878.5725
8.6800 2041.7575
8.7000 2089.9225
8.7200 1978.2175
8.7400 1850.0450
8.7600 1958.3375
8.7800 1999.9950
8.8000 1955.1425
8.8200 1658.2825
8.8400 1744.9150
8.8600 1833.2875
8.8800 1873.2875
8.9000 1904.9600
8.9200 1918.3950
8.9400 1899.9125
8.9600 1943.2150
8.9800 1976.7550
9.0000 1976.2800
9.0200 2022.6450
9.0400 1811.0375
9.0600 1968.1475
9.0800 1959.3275
9.1000 1774.6450
9.1200 1846.5525
9.1400 1835.7600
9.1600 1732.7000
9.1800 1847.9325
9.2000 1885.6575
9.2200 1827.2475
9.2400 1981.4600
9.2600 1984.1450
9.2800 1875.2825
9.3000 1864.1750
9.3200 1959.9375
9.3400 2000.3275
9.3600 2071.2475
9.3800 1803.7625
9.4000 1921.8100
9.4200 1881.2525
9.4400 1760.3050
9.4600 1763.5025
9.4800 1850.4475
9.5000 1725.6475
9.5200 1932.1850
9.5400 1894.8225
9.5600 1898.8825
9.5800 1883.4900
9.6000 1991.6675
9.6200 1999.5025
9.6400 1978.5800
9.6600 1747.9125
9.6800 1793.7075
9.7000 1926.3575
9.7200 2076.9850
9.7400 1770.7400
9.7600 1829.6450
9.7800 1814.4600
9.8000 1720.0325
9.8200 1939.3175
9.8400 1742.1425
9.8600 1883.9975
9.8800 1846.9375
9.9000 1814.9950
9.9200 1762.3150
9.9400 1870.3525
9.9600 1812.9900
9.9800 1954.5175
10.0000 1841.6500
10.0200 1913.6450
10.0400 1901.5075
10.0600 1917.3625
10.0800 1961.3375
10.1000 1969.0050
10.1200 1940.1700
10.1400 1978.1175
10.1600 2131.1925
10.1800 1858.9600
10.2000 1742.4550
10.2200 1911.8450
10.2400 1963.7125
10.2600 1929.3600
10.2800 1861.2850
10.3000 1962.3075
10.3200 1814.7475
10.3400 1809.0525
10.3600 1999.5825
10.3800 1948.1475
10.4000 1917.4225
10.4200 2031.8725
10.4400 2171.7700
10.4600 2067.6325
10.4800 1844.8450
10.5000 1938.7625
10.5200 2077.7350
10.5400 1890.0100
10.5600 2073.3550
10.5800 2017.8875
10.6000 1960.6300
10.6200 1857.0775
10.6400 1911.4375
10.6600 2012.5600
10.6800 2024.9025
10.7000 1965.1100
10.7200 1863.8125
10.7400 1837.6275
10.7600 1983.3325
10.7800 1981.9450
10.8000 1990.2300
10.8200 2061.1425
10.8400 1998.8975
10.8600 1849.7300
10.8800 1966.7775
10.9000 1983.7700
10.9200 2245.1650
10.9400 2014.6525
10.9600 1874.0100
10.9800 2031.9475
11.0000 1808.4750
11.0200 2012.8950
11.0400 1954.0250
11.0600 1977.6750
11.0800 1987.6650
11.1000 1975.9775
11.1200 2028.9800
11.1400 2065.8725
11.1600 2163.1900
11.1800 2196.5075
11.2000 2040.6525
11.2200 2253.1025
11.2400 2197.6200
11.2600 2065.6000
11.2800 2096.8575
11.3000 1808.3325
11.3200 1834.1025
11.3400 1968.5775
11.3600 1905.1600
11.3800 1775.5350
11.4000 1915.3950
11.4200 1976.8550
11.4400 2302.6750
11.4600 2014.3650
11.4800 2131.6100
11.5000 2068.7350
11.5200 2030.8350
11.5400 2029.1175
11.5600 2081.3850
11.5800 1993.5550
11.6000 2097.5350
11.6200 2075.9600
11.6400 2011.2875
11.6600 1906.5250
11.6800 2052.6150
11.7000 2098.4800
11.7200 2015.8325
11.7400 2172.7825
11.7600 2219.9325
11.7800 1990.4700
11.8000 1997.6325
11.8200 2073.8325
11.8400 2021.4000
11.8600 2078.2975
11.8800 2206.5325
11.9000 1951.0300
11.9200 1994.3375
11.9400 1925.7625
11.9600 2034.4900
11.9800 2031.2850
12.0000 1968.9650
12.0200 1976.4650
12.0400 1927.6300
12.0600 1926.8850
12.0800 2119.4425
12.1000 1957.6925
12.1200 2152.0675
12.1400 2038.2000
12.1600 1945.1000
12.1800 2160.0300
12.2000 1998.3850
12.2200 1949.8450
12.2400 2063.8150
12.2600 2078.1625
12.2800 1950.7300
12.3000 2053.6725
12.3200 1979.6075
12.3400 2048.4125
12.3600 1915.3775
12.3800 1856.3875
12.4000 1907.4200
12.4200 1975.2225
12.4400 2096.9225
12.4600 2127.0550
12.4800 2075.0000
12.5000 2033.2600
12.5200 2144.8375
12.5400 2102.1675
12.5600 2049.1250
12.5800 1972.1300
12.6000 1870.3800
12.6200 1717.6750
12.6400 1768.1825
12.6600 2068.3400
12.6800 1956.3450
12.7000 1958.4975
12.7200 2087.2750
12.7400 2114.7050
12.7600 2093.1700
12.7800 2033.9000
12.8000 1999.1500
12.8200 2184.2950
12.8400 2195.4925
12.8600 2189.7950
12.8800 1934.6525
12.9000 2071.2325
12.9200 2036.0450
12.9400 2002.8500
12.9600 2086.1050
12.9800 2026.9125
13.0000 1930.3450
13.0200 2115.6300
13.0400 2180.4425
13.0600 2193.4200
13.0800 1935.1275
13.1000 1994.6125
13.1200 2354.2450
13.1400 2213.8300
13.1600 1915.3500
13.1800 1982.8500
13.2000 2047.4000
13.2200 2022.4150
13.2400 1990.5750
13.2600 1926.2200
13.2800 2085.8725
13.3000 2102.4425
13.3200 2062.5450
13.3400 2151.7250
13.3600 1950.7550
13.3800 2039.9000
13.4000 2103.2625
13.4200 2139.8175
13.4400 2195.1675
13.4600 2155.6000
13.4800 2209.1275
13.5000 2192.9775
13.5200 1983.9225
13.5400 2148.4425
13.5600 2134.1075
13.5800 2133.2125
13.6000 2050.7625
13.6200 2066.6700
13.6400 2149.2475
13.6600 2149.1400
13.6800 2227.2250
13.7000 2230.8500
13.7200 2030.4075
13.7400 2002.9025
13.7600 2031.1725
13.7800 2026.2075
13.8000 2216.6675
13.8200 2203.9925
13.8400 2070.1600
13.8600 2098.6275
13.8800 1990.9800
13.9000 1988.7925
13.9200 2043.2325
13.9400 1971.3650
13.9600 2023.6675
13.9800 2022.2000
14.0000 2171.5475
14.0200 2030.7375
14.0400 1996.1375
14.0600 1974.2475
14.0800 2262.8725
14.1000 2217.2925
14.1200 2229.9700
14.1400 2271.3475
14.1600 2026.4275
14.1800 2147.5825
14.2000 2110.6775
14.2200 2042.8250
14.2400 2179.0050
14.2600 2332.3575
14.2800 2204.8775
14.3000 2164.0375
14.3200 2245.0550
14.3400 2293.9025
14.3600 2338.2775
14.3800 2520.0725
14.4000 2427.7875
14.4200 2110.4775
14.4400 2140.6075
14.4600 2120.2800
14.4800 2046.3700
14.5000 1991.1550
14.5200 2003.1050
14.5400 2311.3400
14.5600 2354.8675
14.5800 2295.1050
14.6000 2225.8550
14.6200 2359.7150
14.6400 2114.4675
14.6600 2210.1450
14.6800 2114.2600
14.7000 2348.7975
14.7200 2197.2250
14.7400 2442.1100
14.7600 2432.5500
14.7800 2128.2850
14.8000 2343.7875
14.8200 2368.6925
14.8400 2097.4400
14.8600 2211.5825
14.8800 2272.9975
14.9000 2232.9400
14.9200 2219.5650
14.9400 2111.3900
14.9600 2183.2750
14.9800 2340.2025
15.0000 1957.6425
15.0200 2135.7350
15.0400 2372.5375
15.0600 2320.1225
15.0800 2389.1350
15.1000 2140.0000
15.1200 2298.6900
15.1400 2263.7775
15.1600 2200.7975
15.1800 2429.6275
15.2000 2333.3325
15.2200 2328.2950
15.2400 2190.7975
15.2600 2171.7775
15.2800 2316.1125
15.3000 2302.7150
15.3200 2376.1725
15.3400 2166.1000
15.3600 2398.2275
15.3800 2081.4050
15.4000 2292.3875
15.4200 2316.6675
15.4400 2314.8475
15.4600 2248.6725
15.4800 2203.0075
15.5000 2314.7900
15.5200 2247.1250
15.5400 2463.9250
15.5600 2349.4325
15.5800 2321.1575
15.6000 2151.9425
15.6200 2241.3275
15.6400 2228.2750
15.6600 2390.4075
15.6800 2327.1125
15.7000 2439.0650
15.7200 2292.3575
15.7400 2330.5700
15.7600 2158.2075
15.7800 2154.9825
15.8000 2498.9900
15.8200 2425.9500
15.8400 2497.8200
15.8600 2315.5550
15.8800 2217.5275
15.9000 2301.1125
15.9200 2416.1550
15.9400 2360.5900
15.9600 2639.9925
15.9800 2407.3225
16.0000 2252.0050
16.0200 2607.5725
16.0400 2450.6350
16.0600 2607.7175
16.0800 2416.7075
16.1000 2433.1025
16.1200 2291.8325
16.1400 2491.6625
16.1600 2350.1100
16.1800 2433.2025
16.2000 2574.6625
16.2200 2442.0900
16.2400 2566.1675
16.2600 2516.9075
16.2800 2624.3925
16.3000 2434.5625
16.3200 2565.7050
16.3400 2574.9325
16.3600 2764.9725
16.3800 2634.6200
16.4000 2592.1025
16.4200 2575.1875
16.4400 2533.8375
16.4600 2492.2050
16.4800 2458.7925
16.5000 2589.7250
16.5200 2427.5625
16.5400 2482.3875
16.5600 2450.5675
16.5800 2711.9075
16.6000 2553.1125
16.6200 2590.8550
16.6400 2501.8625
16.6600 2491.8425
16.6800 2622.0675
16.7000 2429.5650
16.7200 2693.4950
16.7400 2561.8025
16.7600 2460.8650
16.7800 2377.1800
16.8000 2472.3000
16.8200 2580.3175
16.8400 2664.2775
16.8600 2715.1900
16.8800 2450.0125
16.9000 2506.2550
16.9200 2718.0575
16.9400 2571.8725
16.9600 2470.0400
16.9800 2490.8025
17.0000 2443.4375
17.0200 2730.7850
17.0400 2452.8025
17.0600 2561.9200
17.0800 2550.6475
17.1000 2389.9450
17.1200 2567.2325
17.1400 2598.9650
17.1600 2647.8875
17.1800 2777.5875
17.2000 2735.5300
17.2200 2621.8950
17.2400 2775.7200
17.2600 2687.9875
17.2800 2619.8275
17.3000 2664.2525
17.3200 2745.9050
17.3400 2813.3350
17.3600 2769.2100
17.3800 2671.8400
17.4000 2674.5625
17.4200 2485.6925
17.4400 2624.7300
17.4600 2712.0650
17.4800 2779.5950
17.5000 2586.8650
17.5200 2763.4325
17.5400 2743.6225
17.5600 2765.1775
17.5800 2610.0775
17.6000 2623.4675
17.6200 2828.1850
17.6400 2607.4425
17.6600 2552.6650
17.6800 2760.4050
17.7000 2720.5025
17.7200 2771.1125
17.7400 3015.8900
17.7600 2831.4900
17.7800 2599.5025
17.8000 2932.0125
17.8200 2896.4050
17.8400 2876.2000
17.8600 2712.7500
17.8800 2568.7825
17.9000 2689.4250
17.9200 2969.6325
17.9400 2945.4900
17.9600 2711.0025
17.9800 2883.7000
18.0000 2746.5225
18.0200 3223.9800
18.0400 2937.3375
18.0600 2816.5175
18.0800 2701.3200
18.1000 2958.9350
18.1200 2929.9325
18.1400 2848.7875
18.1600 2780.7575
18.1800 2790.2125
18.2000 2928.4400
18.2200 2675.9850
18.2400 3021.5800
18.2600 2884.0925
18.2800 2715.3050
18.3000 2866.3300
18.3200 2973.9675
18.3400 2983.3325
18.3600 2719.5175
18.3800 2842.2650
18.4000 3166.7450
18.4200 2936.9900
18.4400 3020.9375
18.4600 3093.3275
18.4800 2965.1525
18.5000 2897.6125
18.5200 2801.9525
18.5400 2851.4150
18.5600 2970.2450
18.5800 2834.2725
18.6000 2913.4550
18.6200 3356.3775
18.6400 3029.4150
18.6600 3020.4425
18.6800 2780.3300
18.7000 2935.1625
18.7200 3224.6875
18.7400 3110.5150
18.7600 3069.5175
18.7800 3310.0525
18.8000 3105.9050
18.8200 3391.4675
18.8400 3264.2400
18.8600 3322.4500
18.8800 3215.9550
18.9000 3148.7025
18.9200 3002.5775
18.9400 2954.0825
18.9600 3059.5725
18.9800 3184.4525
19.0000 3046.9300
19.0200 2762.8800
19.0400 3103.2075
19.0600 3122.0075
19.0800 3036.8350
19.1000 3053.9975
19.1200 2985.9175
19.1400 3372.8475
19.1600 3028.6975
19.1800 3067.7150
19.2000 2931.9300
19.2200 3088.3775
19.2400 3095.0850
19.2600 3106.0375
19.2800 3201.6450
19.3000 3044.5900
19.3200 2959.3725
19.3400 3114.5375
19.3600 3248.8525
19.3800 3116.7725
19.4000 3034.6275
19.4200 3181.6775
19.4400 3044.7200
19.4600 3151.6725
19.4800 3160.8050
19.5000 3115.7975
19.5200 2952.5425
19.5400 3123.0525
19.5600 3405.6175
19.5800 3210.0575
19.6000 3152.5675
19.6200 3290.8200
19.6400 3232.2725
19.6600 3076.1725
19.6800 3078.0675
19.7000 3230.5100
19.7200 3286.3350
19.7400 3333.6200
19.7600 3453.4100
19.7800 3356.4100
19.8000 3270.6250
19.8200 3230.4950
19.8400 3489.1500
19.8600 3305.6000
19.8800 3168.1800
19.9000 3143.0725
19.9200 3459.9175
19.9400 3214.0375
19.9600 3308.7475
19.9800 3279.6225
20.0000 3397.4925
20.0200 3466.2650
20.0400 3330.7500
20.0600 3251.9750
20.0800 3378.7175
20.1000 3250.9150
20.1200 3148.3075
20.1400 3092.3675
20.1600 3356.1125
20.1800 3512.0225
20.2000 3336.0500
20.2200 3318.8450
20.2400 3189.2750
20.2600 3266.7800
20.2800 3433.8275
20.3000 3459.9050
20.3200 3539.3675
20.3400 3484.1425
20.3600 3406.0400
20.3800 3351.3000
20.4000 3402.1425
20.4200 3336.1325
20.4400 3229.5325
20.4600 3489.4950
20.4800 3571.7050
20.5000 3655.1300
20.5200 3554.9550
20.5400 3318.5175
20.5600 3679.1100
20.5800 3504.2900
20.6000 3453.2400
20.6200 3610.7550
20.6400 3689.7125
20.6600 3428.9850
20.6800 3516.7725
20.7000 3558.3325
20.7200 3459.5625
20.7400 3551.7075
20.7600 3471.6800
20.7800 3408.8700
20.8000 3727.5425
20.8200 3548.4300
20.8400 3638.3450
20.8600 3591.9800
20.8800 3736.1025
20.9000 3529.5100
20.9200 3549.3300
20.9400 3549.0350
20.9600 3580.5625
20.9800 3682.3050
21.0000 3695.4025
21.0200 3769.1500
21.0400 3707.8375
21.0600 3683.3325
21.0800 3599.7250
21.1000 3465.8125
21.1200 3452.5750
21.1400 3451.9275
21.1600 3603.5275
21.1800 3560.5625
21.2000 3475.9150
21.2200 3553.9000
21.2400 3570.6075
21.2600 3655.6225
21.2800 3499.3200
21.3000 3327.6075
21.3200 3544.7875
21.3400 3782.9850
21.3600 3631.3900
21.3800 3547.7600
21.4000 3623.4800
21.4200 3693.9925
21.4400 3777.3700
21.4600 3724.7925
21.4800 3737.5525
21.5000 3737.5000
21.5200 3864.4000
21.5400 3565.5400
21.5600 3537.1350
21.5800 3510.7300
21.6000 3553.7325
21.6200 3729.9425
21.6400 3622.4200
21.6600 3566.6675
21.6800 3751.8125
21.7000 3792.0150
21.7200 3727.9475
21.7400 3665.3175
21.7600 3969.1000
21.7800 3924.0125
21.8000 3787.1200
21.8200 3788.8850
21.8400 3751.1875
21.8600 3635.8500
21.8800 3733.8450
21.9000 3868.3850
21.9200 3627.0175
21.9400 3627.9775
21.9600 3618.2775
21.9800 3799.3150
22.0000 3935.3100
22.0200 4102.8650
22.0400 3983.9475
22.0600 3988.7200
22.0800 3800.8225
22.1000 3794.4950
22.1200 3699.4625
22.1400 3793.2575
22.1600 3891.7225
22.1800 3848.8200
22.2000 3682.3800
22.2200 3779.2750
22.2400 3894.9900
22.2600 3857.5075
22.2800 3797.8925
22.3000 4078.2375
22.3200 4011.5475
22.3400 3621.6800
22.3600 3703.0350
22.3800 3803.3925
22.4000 3866.8675
22.4200 3815.6875
22.4400 3637.4425
22.4600 3831.3750
22.4800 3778.7675
22.5000 3621.2000
22.5200 3583.3325
22.5400 3774.4350
22.5600 4101.1775
22.5800 4017.8225
22.6000 3754.6475
22.6200 3882.1825
22.6400 3986.4925
22.6600 3853.9750
22.6800 3648.4625
22.7000 3875.0100
22.7200 3751.3750
22.7400 3952.5975
22.7600 4020.3100
22.7800 3784.4225
22.8000 3782.4525
22.8200 3830.6650
22.8400 3861.6150
22.8600 3745.1175
22.8800 3908.8550
22.9000 3881.5700
22.9200 3856.0075
22.9400 3908.6650
22.9600 3700.9250
22.9800 3882.4950
23.0000 4002.6650
23.0200 3930.3450
23.0400 3783.1200
23.0600 3830.5750
23.0800 3988.7350
23.1000 3731.5150
23.1200 3680.0575
23.1400 3893.4200
23.1600 3782.1075
23.1800 3600.8025
23.2000 3800.0250
23.2200 3941.4525
23.2400 3829.5550
23.2600 3712.0100
23.2800 3781.5525
23.3000 3980.4150
23.3200 3851.6775
23.3400 3812.2450
23.3600 3952.9825
23.3800 3900.1150
23.4000 3820.0600
23.4200 3808.3325
23.4400 3797.5675
23.4600 4065.7600
23.4800 4098.6325
23.5000 3744.1075
23.5200 3775.8200
23.5400 3824.6175
23.5600 3898.2375
23.5800 3942.3750
23.6000 3763.4075
23.6200 3846.9025
23.6400 3950.0000
23.6600 4013.3925
23.6800 3870.7025
23.7000 3729.8175
23.7200 3792.4150
23.7400 3820.6825
23.7600 3614.5775
23.7800 3735.2350
23.8000 3974.1475
23.8200 3918.7350
23.8400 3855.2000
23.8600 3899.8575
23.8800 3826.5550
23.9000 3658.0525
23.9200 3674.2725
23.9400 3807.4575
23.9600 3889.2000
23.9800 3877.5225
24.0000 4017.2350
24.0200 3963.1675
24.0400 3892.2025
24.0600 3719.7025
24.0800 3676.3325
24.1000 3907.8650
24.1200 3913.4525
24.1400 3836.6050
24.1600 3681.7800
24.1800 3749.7350
24.2000 3893.5650
24.2200 3791.0675
24.2400 3738.4200
24.2600 3803.3825
24.2800 3638.4875
24.3000 3573.1600
24.3200 3651.5100
24.3400 3670.0325
24.3600 3750.9675
24.3800 3778.6350
24.4000 3768.2125
24.4200 3636.9350
24.4400 3630.2550
24.4600 3785.0000
24.4800 3874.5150
24.5000 3769.3275
24.5200 3600.3000
24.5400 3634.2900
24.5600 3588.0925
24.5800 3692.8700
24.6000 3921.9375
24.6200 3967.4800
24.6400 3863.0925
24.6600 3819.2750
24.6800 3717.9075
24.7000 3690.9350
24.7200 3790.8225
24.7400 3842.8950
24.7600 3783.1925
24.7800 3757.1475
24.8000 3765.4925
24.8200 3905.3925
24.8400 3898.3050
24.8600 3803.6075
24.8800 3809.4325
24.9000 3694.3025
24.9200 3722.1200
24.9400 3905.7300
24.9600 3918.8625
24.9800 3842.3200
25.0000 3742.1175
25.0200 3813.5325
25.0400 3744.9675
25.0600 3714.8500
25.0800 3726.0525
25.1000 3574.4200
25.1200 3504.6025
25.1400 3526.7075
25.1600 3615.0100
25.1800 3775.6400
25.2000 3771.5950
25.2200 3554.2175
25.2400 3597.0000
25.2600 3760.5550
25.2800 3815.0250
25.3000 3773.8975
25.3200 3802.3275
25.3400 3681.5400
25.3600 3664.8250
25.3800 3917.1125
25.4000 3984.7625
25.4200 3847.3900
25.4400 3980.9225
25.4600 3859.5925
25.4800 3636.5275
25.5000 3780.6475
25.5200 3893.1500
25.5400 3956.3075
25.5600 3903.7675
25.5800 3825.0000
25.6000 3829.3750
25.6200 3846.4325
25.6400 3975.9750
25.6600 3939.8625
25.6800 3999.2100
25.7000 4162.0150
25.7200 4102.4900
25.7400 4170.3850
25.7600 4275.0000
25.7800 4296.4525
25.8000 4308.1050
25.8200 4244.4675
25.8400 4391.9875
25.8600 4536.5550
25.8800 4321.9400
25.9000 4111.7625
25.9200 4197.6150
25.9400 4556.8025
25.9600 4711.8475
25.9800 4704.6000
26.0000 4988.5275
26.0200 5078.8600
26.0400 4941.6650
26.0600 4949.9625
26.0800 5115.9925
26.1000 5440.4800
26.1200 5612.5375
26.1400 5666.0050
26.1600 5979.8100
26.1800 6352.3750
26.2000 6744.8400
26.2200 7078.2275
26.2400 7418.1625
26.2600 8110.9050
26.2800 8901.6650
26.3000 9744.9850
26.3200 10591.5175
26.3400 11502.9950
26.3600 12800.3925
26.3800 14137.3000
26.4000 15267.3350
26.4200 16521.0550
26.4400 17984.0750
26.4600 19542.9625
26.4800 20582.6300
26.5000 20755.6975
26.5200 20621.9775
26.5400 20211.0875
26.5600 19814.1875
26.5800 19584.6850
26.6000 18865.5325
26.6200 17532.5025
26.6400 16017.7925
26.6600 14758.6000
26.6800 13656.3350
26.7000 12530.3375
26.7200 11368.2675
26.7400 10432.7625
26.7600 9426.4100
26.7800 8616.9525
26.8000 7844.2350
26.8200 7128.1525
26.8400 6418.4000
26.8600 6032.0475
26.8800 5848.3300
26.9000 5484.6150
26.9200 5038.0625
26.9400 4992.0000
26.9600 5039.9400
26.9800 4868.4625
27.0000 4686.8450
27.0200 4520.3175
27.0400 4396.9800
27.0600 4190.6925
27.0800 4258.7150
27.1000 4157.6500
27.1200 3966.1875
27.1400 4019.2550
27.1600 3975.2325
27.1800 3976.0550
27.2000 4009.9825
27.2200 3892.5775
27.2400 3835.6275
27.2600 3834.5825
27.2800 3736.8300
27.3000 3582.1275
27.3200 3740.9525
27.3400 3799.8750
27.3600 3594.1925
27.3800 3571.4750
27.4000 3461.1875
27.4200 3418.3500
27.4400 3477.9075
27.4600 3418.9725
27.4800 3429.0725
27.5000 3397.1525
27.5200 3471.5425
27.5400 3483.9100
27.5600 3508.3325
27.5800 3446.6050
27.6000 3368.5925
27.6200 3390.1525
27.6400 3342.1900
27.6600 3224.4250
27.6800 3293.3450
27.7000 3470.0375
27.7200 3545.6025
27.7400 3505.8450
27.7600 3295.0100
27.7800 3483.3250
27.8000 3661.9500
27.8200 3533.2375
27.8400 3393.1175
27.8600 3187.7925
27.8800 3268.1875
27.9000 3293.1600
27.9200 3354.0550
27.9400 3320.8025
27.9600 3239.4975
27.9800 3327.8250
28.0000 3279.5750
28.0200 3267.8225
28.0400 3351.4025
28.0600 3438.7300
28.0800 3383.2050
28.1000 3618.6425
28.1200 3573.4700
28.1400 3428.1900
28.1600 3220.3275
28.1800 3214.0250
28.2000 3409.4400
28.2200 3441.6950
28.2400 3343.9900
28.2600 3240.6950
28.2800 3169.3350
28.3000 3182.8975
28.3200 3354.3750
28.3400 3333.3325
28.3600 3339.4400
28.3800 3353.0450
28.4000 3321.9175
28.4200 3255.3075
28.4400 3301.2625
28.4600 3292.4775
28.4800 3182.5800
28.5000 3374.6625
28.5200 3493.4500
28.5400 3359.8475
28.5600 3314.5450
28.5800 3435.9350
28.6000 3193.1125
28.6200 3227.0225
28.6400 3205.8375
28.6600 3269.0350
28.6800 3381.1650
28.7000 3393.8825
28.7200 3329.2200
28.7400 3226.7525
28.7600 3229.6150
28.7800 3281.5600
28.8000 3093.1600
28.8200 3003.1600
28.8400 3007.7950
28.8600 2983.8625
28.8800 3080.6850
28.9000 3150.2400
28.9200 3133.1025
28.9400 3033.2200
28.9600 3153.1500
28.9800 2988.9125
29.0000 3013.5350
29.0200 3020.2775
29.0400 3044.6575
29.0600 3330.4325
29.0800 3314.5950
29.1000 3261.0300
29.1200 3253.2275
29.1400 3203.5725
29.1600 3112.9650
29.1800 3040.5975
29.2000 3118.1625
29.2200 3153.8800
29.2400 3132.0050
29.2600 3180.7125
29.2800 3096.6700
29.3000 2956.2175
29.3200 3040.5500
29.3400 3033.6850
29.3600 2998.2625
29.3800 3101.9325
29.4000 3098.5125
29.4200 3132.0225
29.4400 2978.6050
29.4600 3093.1600
29.4800 3217.3075
29.5000 3109.0975
29.5200 3025.8475
29.5400 3003.3625
29.5600 2976.8075
29.5800 2897.2650
29.6000 2848.1825
29.6200 3037.1800
29.6400 3117.9075
29.6600 3048.5675
29.6800 3176.3425
29.7000 3115.6775
29.7200 2944.3275
29.7400 3033.3325
29.7600 3049.9950
29.7800 3110.6325
29.8000 3146.5275
29.8200 3039.0625
29.8400 2970.4775
29.8600 3164.7175
29.8800 2877.0600
29.9000 3026.3925
29.9200 3022.1550
29.9400 3053.7450
29.9600 2986.8375
29.9800 2959.9625
30.0000 3231.9575
30.0200 3139.2250
30.0400 3157.3225
30.0600 3048.3775
30.0800 3048.8500
30.1000 3022.1750
30.1200 3083.3325
30.1400 3092.1275
30.1600 3081.6475
30.1800 3016.0200
30.2000 3108.3325
30.2200 3058.6525
30.2400 2914.5150
30.2600 2966.1375
30.2800 3090.7075
30.3000 2964.5450
30.3200 3025.9225
30.3400 3201.8700
30.3600 3068.4475
30.3800 2885.4175
30.4000 2924.9625
30.4200 2941.7425
30.4400 2941.3250
30.4600 2981.8975
30.4800 2921.8225
30.5000 3052.4825
30.5200 3008.3325
30.5400 3000.3050
30.5600 3028.9350
30.5800 3213.9150
30.6000 3200.9575
30.6200 3067.8600
30.6400 3280.3600
30.6600 3392.3850
30.6800 3233.1075
30.7000 3180.8925
30.7200 3367.8700
30.7400 3588.8225
30.7600 3366.2125
30.7800 3302.6550
30.8000 3311.5825
30.8200 3425.1975
30.8400 3498.2475
30.8600 3535.1625
30.8800 3470.4175
30.9000 3391.9575
30.9200 3271.3475
30.9400 3329.1825
30.9600 3623.0900
30.9800 3750.4875
31.0000 3664.8450
31.0200 3593.3450
31.0400 3684.5900
31.0600 3633.6975
31.0800 3599.4200
31.1000 3774.8925
31.1200 3569.9250
31.1400 3455.3675
31.1600 3718.8350
31.1800 3827.4225
31.2000 4010.6900
31.2200 4203.5375
31.2400 4293.3800
31.2600 4351.6450
31.2800 4378.6500
31.3000 4236.1050
31.3200 4416.6675
31.3400 4481.7425
31.3600 4788.8200
31.3800 5064.1675
31.4000 5698.3250
31.4200 6464.8025
31.4400 7180.4650
31.4600 8594.1075
31.4800 10286.9800
31.5000 12937.0050
31.5200 16597.1025
31.5400 21341.3700
31.5600 27221.4275
31.5800 34327.0375
31.6000 43517.2050
31.6200 53404.3025
31.6400 63413.1625
31.6600 72651.3725
31.6800 76260.6200
31.7000 75073.7275
31.7200 70882.4775
31.7400 64647.6875
31.7600 59060.0975
31.7800 51961.8925
31.8000 43993.1050
31.8200 37019.0775
31.8400 31040.3950
31.8600 26476.7575
31.8800 22936.4525
31.9000 19978.5800
31.9200 17013.3600
31.9400 14072.5650
31.9600 12198.3425
31.9800 10306.5250
32.0000 8474.5300
32.0200 7320.6425
32.0400 6503.0575
32.0600 5703.8625
32.0800 4907.8075
32.1000 4614.0800
32.1200 4215.7900
32.1400 3877.0800
32.1600 3819.3275
32.1800 3729.8500
32.2000 3910.8850
32.2200 3666.3500
32.2400 3530.5550
32.2600 3321.4450
32.2800 3347.6300
32.3000 3313.3475
32.3200 3207.9950
32.3400 3310.6475
32.3600 3274.5025
32.3800 2958.3325
32.4000 2959.4625
32.4200 2995.7800
32.4400 3160.0150
32.4600 3019.3450
32.4800 3082.9325
32.5000 3044.4850
32.5200 3155.6825
32.5400 3039.8950
32.5600 3160.6500
32.5800 3247.7625
32.6000 2969.6400
32.6200 3161.5325
32.6400 3067.0050
32.6600 2697.3850
32.6800 3041.6675
32.7000 3047.6050
32.7200 3078.9225
32.7400 2962.9400
32.7600 2825.6475
32.7800 2944.9975
32.8000 2847.3275
32.8200 2904.7450
32.8400 3000.9350
32.8600 2957.2325
32.8800 3041.6400
32.9000 2747.5475
32.9200 3125.6850
32.9400 2972.3350
32.9600 2803.9850
32.9800 2804.5175
33.0000 3118.8650
33.0200 2989.9825
33.0400 2954.1850
33.0600 2783.1350
33.0800 2939.8475
33.1000 3001.6100
33.1200 2989.6100
33.1400 2738.0525
33.1600 2788.7750
33.1800 2830.9125
33.2000 2748.5300
33.2200 2998.3300
33.2400 3138.8900
33.2600 3019.1475
33.2800 2958.3325
33.3000 2941.2175
33.3200 2764.6700
33.3400 2863.9075
33.3600 3189.0275
33.3800 3059.9000
33.4000 2973.9900
33.4200 2877.2000
33.4400 3005.8425
33.4600 3091.0000
33.4800 3275.7625
33.5000 3169.0325
33.5200 2993.5050
33.5400 3040.2050
33.5600 3340.4775
33.5800 3301.0000
33.6000 2976.9950
33.6200 2881.4575
33.6400 2754.5025
33.6600 2937.7250
33.6800 2990.8225
33.7000 2866.8250
33.7200 2990.6225
33.7400 2988.8425
33.7600 3186.9075
33.7800 2978.8825
33.8000 2922.4125
33.8200 3136.6600
33.8400 2917.6025
33.8600 2951.2075
33.8800 3252.4925
33.9000 3146.0375
33.9200 3100.0075
33.9400 3543.5575
33.9600 3269.1450
33.9800 3317.0700
34.0000 3345.5450
34.0200 3758.7200
34.0400 3771.1925
34.0600 3869.2425
34.0800 3941.5175
34.1000 4317.7850
34.1200 4540.1550
34.1400 4709.9625
34.1600 5001.0525
34.1800 6299.0225
34.2000 7176.5725
34.2200 8601.1625
34.2400 10545.0725
34.2600 13578.5800
34.2800 17698.9525
34.3000 22628.6125
34.3200 29639.8675
34.3400 35658.8100
34.3600 41917.7900
34.3800 46416.5600
34.4000 50976.1225
34.4200 52950.8675
34.4400 54866.5000
34.4600 51363.0425
34.4800 48247.0900
34.5000 44235.8975
34.5200 39086.5275
34.5400 33679.8675
34.5600 27628.1050
34.5800 22527.6575
34.6000 17600.3275
34.6200 14338.9075
34.6400 11211.4800
34.6600 8914.4125
34.6800 7340.8125
34.7000 5749.6000
34.7200 4870.5125
34.7400 4363.9500
34.7600 4015.3250
34.7800 3815.1150
34.8000 3540.9800
34.8200 3391.9900
34.8400 3482.6550
34.8600 3208.3800
34.8800 3241.6525
34.9000 3200.0300
34.9200 3133.4500
34.9400 3291.2225
34.9600 2893.2125
34.9800 3040.9275
35.0000 3033.3825
35.0200 3033.3325
35.0400 3033.3325
35.0600 3248.0225
35.0800 3109.7750
35.1000 2894.1000
35.1200 2834.0500
35.1400 2940.2225
35.1600 3237.3525
35.1800 3348.3300
35.2000 3038.5500
35.2200 3049.7075
35.2400 3090.8925
35.2600 2822.0600
35.2800 2939.0850
35.3000 2892.7525
35.3200 3119.6950
35.3400 2807.7300
35.3600 3035.6675
35.3800 2976.7250
35.4000 2853.3625
35.4200 2922.9050
35.4400 2957.3675
35.4600 3233.1600
35.4800 3168.9950
35.5000 3150.5350
35.5200 3230.5725
35.5400 3225.2850
35.5600 3120.4800
35.5800 3108.6350
35.6000 2996.0150
35.6200 3175.9925
35.6400 3319.4275
35.6600 3332.9975
35.6800 3429.1925
35.7000 3624.8475
35.7200 3609.4200
35.7400 3528.7075
35.7600 3604.5400
35.7800 3298.4600
35.8000 3624.6225
35.8200 4077.7275
35.8400 3989.1225
35.8600 4616.2375
35.8800 4618.3900
35.9000 5169.2625
35.9200 5925.4850
35.9400 6518.0700
35.9600 7234.5775
35.9800 8902.0600
36.0000 10743.0775
36.0200 12983.3525
36.0400 16587.4475
36.0600 20384.9275
36.0800 24939.8950
36.1000 32284.6125
36.1200 40957.0200
36.1400 51584.4350
36.1600 61437.2475
36.1800 69050.1800
36.2000 73006.3425
36.2200 73622.9900
36.2400 74735.0300
36.2600 73485.0775
36.2800 70359.5800
36.3000 65883.9875
36.3200 59206.9725
36.3400 51832.0075
36.3600 43375.0050
36.3800 38248.5950
36.4000 31644.0500
36.4200 25905.5600
36.4400 21594.5100
36.4600 17467.6425
36.4800 13668.0575
36.5000 11440.3750
36.5200 9198.1400
36.5400 7292.7975
36.5600 6394.5525
36.5800 5571.8100
36.6000 4876.8275
36.6200 4604.1075
36.6400 4090.4350
36.6600 3738.6750
36.6800 3572.1375
36.7000 3339.1450
36.7200 3180.7675
36.7400 3483.4175
36.7600 3132.4625
36.7800 3084.1425
36.8000 2632.3175
36.8200 2793.5775
36.8400 2711.6600
36.8600 2640.0625
36.8800 2820.4325
36.9000 2647.2950
36.9200 2759.4175
36.9400 2588.5150
36.9600 2574.1175
36.9800 2664.3175
37.0000 2645.2600
37.0200 2530.2675
37.0400 2598.2700
37.0600 2512.0000
37.0800 2648.0450
37.1000 2289.5700
37.1200 2514.9450
37.1400 2594.2675
37.1600 2577.8900
37.1800 2236.3675
37.2000 2132.8400
37.2200 2389.4325
37.2400 2314.9425
37.2600 2695.7750
37.2800 2596.2575
37.3000 2428.7400
37.3200 2225.7100
37.3400 2462.6875
37.3600 2230.3125
37.3800 2264.4750
37.4000 2267.7275
37.4200 2179.4900
37.4400 2297.2875
37.4600 2352.9100
37.4800 2416.2575
37.5000 2367.1375
37.5200 2184.9425
37.5400 2064.5175
37.5600 2302.3050
37.5800 2348.8675
37.6000 2162.9875
37.6200 2212.3650
37.6400 2081.4625
37.6600 2122.8525
37.6800 2119.0125
37.7000 2216.8100
37.7200 2061.8500
37.7400 2004.7850
37.7600 2042.7750
37.7800 2199.5500
37.8000 2047.1625
37.8200 2158.7775
37.8400 2083.9650
37.8600 1861.0600
37.8800 2150.7725
37.9000 2010.2575
37.9200 1975.0000
37.9400 2151.4600
37.9600 2197.4350
37.9800 2284.5125
38.0000 2215.5800
38.0200 2150.8100
38.0400 2015.3175
38.0600 1984.6550
38.0800 2116.4050
38.1000 2239.6100
38.1200 2083.6275
38.1400 2231.4925
38.1600 2162.0775
38.1800 2197.3850
38.2000 2180.5050
38.2200 2042.9600
38.2400 1981.9575
38.2600 2072.0775
38.2800 1876.9500
38.3000 1957.8675
38.3200 2135.3725
38.3400 2139.0550
38.3600 2195.3925
38.3800 2380.5300
38.4000 2155.2200
38.4200 2120.6175
38.4400 1980.8375
38.4600 1998.0000
38.4800 1994.6350
38.5000 2231.1375
38.5200 2126.1425
38.5400 1914.1700
38.5600 1861.3625
38.5800 1926.4500
38.6000 1955.2750
38.6200 1971.9250
38.6400 2185.4550
38.6600 2131.6150
38.6800 1952.5375
38.7000 1957.2650
38.7200 1932.8725
38.7400 1918.2500
38.7600 1990.8475
38.7800 2170.0000
38.8000 2181.4200
38.8200 2127.9525
38.8400 2197.2300
38.8600 2095.9550
38.8800 1966.1875
38.9000 2021.9625
38.9200 1901.3075
38.9400 1980.1650
38.9600 2088.3600
38.9800 2128.3175
39.0000 1947.0200
39.0200 2012.9925
39.0400 2108.0600
39.0600 2111.7375
39.0800 1955.9725
39.1000 1936.5175
39.1200 1829.3025
39.1400 1958.4550
39.1600 2019.7850
39.1800 2031.5875
39.2000 1928.0475
39.2200 1847.4175
39.2400 1898.9900
39.2600 2100.3000
39.2800 2071.3875
39.3000 1958.3875
39.3200 1946.4075
39.3400 1839.0050
39.3600 1821.3775
39.3800 1772.8825
39.4000 2038.1525
39.4200 1895.6600
39.4400 1924.2350
39.4600 1930.5425
39.4800 1827.8225
39.5000 1825.8850
39.5200 2001.4000
39.5400 1972.5175
39.5600 1840.3550
39.5800 1827.6600
39.6000 2052.1375
39.6200 1936.6750
39.6400 1896.1750
39.6600 1771.7200
39.6800 1880.6900
39.7000 1886.6025
39.7200 1836.6450
39.7400 1812.2300
39.7600 1916.7675
39.7800 1975.4850
39.8000 1919.6900
39.8200 1944.5000
39.8400 1882.1325
39.8600 1750.5000
39.8800 1786.3625
39.9000 1858.9650
39.9200 1881.3225
39.9400 1788.6075
39.9600 1777.2575
39.9800 1833.7425
40.0000 1818.5300
40.0200 1921.5000
40.0400 1832.7325
40.0600 1948.4950
40.0800 1887.2075
40.1000 2012.7400
40.1200 1897.8525
40.1400 1648.0600
40.1600 1714.3425
40.1800 1733.4075
40.2000 1874.3925
40.2200 1887.6925
40.2400 1800.4675
40.2600 1868.0625
40.2800 1906.1975
40.3000 1716.4300
40.3200 1755.1200
40.3400 1804.0200
40.3600 1820.6725
40.3800 1861.9800
40.4000 1794.9675
40.4200 1883.5075
40.4400 1783.7175
40.4600 1782.4225
40.4800 1671.2850
40.5000 1753.5725
40.5200 1787.7675
40.5400 1734.4600
40.5600 1942.4525
40.5800 1817.7500
40.6000 1802.5550
40.6200 1867.5750
40.6400 1871.1825
40.6600 1848.4600
40.6800 1805.2925
40.7000 1870.3875
40.7200 1754.8275
40.7400 1772.5075
40.7600 1793.9650
40.7800 1743.4350
40.8000 1845.4475
40.8200 1861.5875
40.8400 1862.0175
40.8600 1848.6575
40.8800 1871.6475
40.9000 1703.6475
40.9200 1705.1300
40.9400 1775.1675
40.9600 1743.9075
40.9800 1677.2925
41.0000 1807.2575
41.0200 1944.0225
41.0400 1939.3375
41.0600 1877.5000
41.0800 1882.0575
41.1000 1796.8725
41.1200 1716.9075
41.1400 1753.2050
41.1600 1763.1900
41.1800 1876.3100
41.2000 1848.3975
41.2200 1693.0600
41.2400 1718.1025
41.2600 1867.4650
41.2800 1764.1275
41.3000 1700.0000
41.3200 1705.8550
41.3400 1819.4425
41.3600 1685.5775
41.3800 1596.6625
41.4000 1597.4950
41.4200 1751.3900
41.4400 1694.5225
41.4600 1792.7300
41.4800 1724.8450
41.5000 1765.2250
41.5200 1819.9150
41.5400 1853.9250
41.5600 1889.7825
41.5800 1865.3650
41.6000 1803.8675
41.6200 1760.2925
41.6400 1744.2450
41.6600 1735.9175
41.6800 1739.0750
41.7000 1833.4375
41.7200 1766.1400
41.7400 1722.3900
41.7600 1753.5875
41.7800 1823.7775
41.8000 1775.8350
41.8200 1701.7725
41.8400 1774.4200
41.8600 1850.7875
41.8800 1787.1350
41.9000 1755.6750
41.9200 1701.6450
41.9400 1663.6750
41.9600 1799.7500
41.9800 1821.4600
42.0000 1754.8425
42.0200 1800.9975
42.0400 1810.8025
42.0600 1890.0300
42.0800 1922.0925
42.1000 1809.9825
42.1200 1735.8975
42.1400 1730.6025
42.1600 1862.0700
42.1800 1925.0000
42.2000 1841.2175
42.2200 1772.1025
42.2400 1674.7275
42.2600 1766.9625
42.2800 1816.6475
42.3000 1902.7900
42.3200 2033.2550
42.3400 1892.0275
42.3600 1750.1500
42.3800 1780.3300
42.4000 1852.5525
42.4200 1902.6075
42.4400 1811.8675
42.4600 1780.3725
42.4800 1830.1975
42.5000 1893.9875
42.5200 1850.7525
42.5400 1844.1025
42.5600 1978.9250
42.5800 1948.5775
42.6000 1812.4775
42.6200 1903.2800
42.6400 1794.8575
42.6600 1858.1450
42.6800 1892.6375
42.7000 1888.4350
42.7200 1774.9625
42.7400 1757.2100
42.7600 1767.0575
42.7800 1731.2350
42.8000 1673.3525
42.8200 1709.4950
42.8400 1817.3100
42.8600 1836.7425
42.8800 1916.6675
42.9000 1848.1600
42.9200 1724.1400
42.9400 1761.5500
42.9600 1864.4425
42.9800 1862.4475
43.0000 1873.8225
43.0200 1955.9150
43.0400 1954.2275
43.0600 1890.5875
43.0800 1861.3300
43.1000 1837.0025
43.1200 1723.7875
43.1400 1810.3525
43.1600 1870.4025
43.1800 1768.0450
43.2000 1769.7225
43.2200 1800.0000
43.2400 1831.7700
43.2600 1908.1875
43.2800 1925.8125
43.3000 1863.8725
43.3200 1838.6075
43.3400 1804.7850
43.3600 1846.4975
43.3800 1893.8500
43.4000 1884.2400
43.4200 1838.2650
43.4400 1879.5800
43.4600 1848.5775
43.4800 1907.7525
43.5000 1935.3025
43.5200 1890.5550
43.5400 1880.2175
43.5600 1810.3650
43.5800 1766.6675
43.6000 1886.3100
43.6200 1807.6250
43.6400 1862.0375
43.6600 1934.4400
43.6800 1790.2750
43.7000 1791.1600
43.7200 1867.5250
43.7400 1826.5000
43.7600 1812.3125
43.7800 1690.9250
43.8000 1809.2525
43.8200 1835.5425
43.8400 1877.8375
43.8600 1849.2000
43.8800 1848.1200
43.9000 1826.9350
43.9200 1801.9125
43.9400 1752.0425
43.9600 1772.9050
43.9800 1823.6575
44.0000 1807.8200
44.0200 1761.0775
44.0400 1756.9475
44.0600 1792.1100
44.0800 1732.0775
44.1000 1698.5700
44.1200 1672.8150
44.1400 1852.7750
44.1600 1892.1700
44.1800 1813.0925
44.2000 1794.9450
44.2200 1897.7275
44.2400 1855.6575
44.2600 1874.0750
44.2800 1872.8950
44.3000 1798.1100
44.3200 1815.2175
44.3400 1947.1400
44.3600 1886.2000
44.3800 1900.2675
44.4000 1836.4375
44.4200 1855.0900
44.4400 1905.0025
44.4600 1846.7100
44.4800 1896.5150
44.5000 1945.0150
44.5200 1871.9250
44.5400 1710.5275
44.5600 1752.6750
44.5800 1917.7900
44.6000 2039.5275
44.6200 1914.7200
44.6400 1869.3675
44.6600 1877.0650
44.6800 1810.4325
44.7000 1773.4500
44.7200 1850.5975
44.7400 1898.4675
44.7600 1891.6675
44.7800 1724.2475
44.8000 1711.6500
44.8200 1734.1775
44.8400 1734.3775
44.8600 1964.4225
44.8800 1858.3000
44.9000 1810.6900
44.9200 1846.1650
44.9400 1813.2225
44.9600 1777.5825
44.9800 1745.1175
45.0000 1809.9475
45.0200 1717.0150
45.0400 1743.2575
45.0600 1736.0400
45.0800 1700.6900
45.1000 1603.5900
45.1200 1657.3825
45.1400 1758.3325
45.1600 1830.9950
45.1800 1772.0125
45.2000 1783.5500
45.2200 1767.8575
45.2400 1833.8575
45.2600 1915.3525
45.2800 2009.5500
45.3000 1924.4100
45.3200 1846.8275
45.3400 1966.3500
45.3600 1826.7650
45.3800 1795.0000
45.4000 1902.5175
45.4200 1902.2900
45.4400 1805.4800
45.4600 1818.2150
45.4800 1870.2200
45.5000 1838.0075
45.5200 1945.5300
45.5400 1893.8325
45.5600 1811.9225
45.5800 1766.6750
45.6000 1740.4550
45.6200 1772.5950
45.6400 1712.0850
45.6600 1753.2550
45.6800 1848.7125
45.7000 1757.6775
45.7200 1812.3125
45.7400 1831.5050
45.7600 1714.6625
45.7800 1637.2100
45.8000 1646.0950
45.8200 1712.7325
45.8400 1675.6850
45.8600 1714.4775
45.8800 1764.5100
45.9000 1811.1275
45.9200 1797.2525
45.9400 1829.8150
45.9600 1849.4450
45.9800 1741.6600
46.0000 1758.2825
46.0200 1877.5175
46.0400 1784.6800
46.0600 1731.0875
46.0800 1807.6925
46.1000 1753.9950
46.1200 1700.9925
46.1400 1708.3325
46.1600 1745.5875
46.1800 1747.0800
46.2000 1659.9025
46.2200 1654.8000
46.2400 1640.5925
46.2600 1600.0000
46.2800 1743.7325
46.3000 1844.4325
46.3200 1652.7675
46.3400 1628.6250
46.3600 1798.9725
46.3800 1715.1100
46.4000 1664.6350
46.4200 1790.4850
46.4400 1753.1800
46.4600 1794.7875
46.4800 1896.2700
46.5000 1853.9925
46.5200 1733.9075
46.5400 1799.9100
46.5600 1867.0100
46.5800 1801.2150
46.6000 1761.2450
46.6200 1681.2675
46.6400 1693.6875
46.6600 1617.2950
46.6800 1650.0950
46.7000 1752.9575
46.7200 1764.5025
46.7400 1797.0250
46.7600 1867.6250
46.7800 1848.2975
46.8000 1709.6750
46.8200 1714.5000
46.8400 1852.3350
46.8600 1816.6475
46.8800 1860.5475
46.9000 1884.9375
46.9200 1884.7300
46.9400 1796.5525
46.9600 1883.4700
46.9800 1967.7500
47.0000 2063.6675
47.0200 2194.7625
47.0400 2074.8350
47.0600 1933.6350
47.0800 1909.7275
47.1000 2096.4750
47.1200 2174.0200
47.1400 2157.2300
47.1600 2191.6675
47.1800 2295.2075
47.2000 2459.8175
47.2200 2767.8075
47.2400 3150.2575
47.2600 3286.5275
47.2800 3441.0775
47.3000 4036.4175
47.3200 4667.1050
47.3400 5349.9725
47.3600 6385.3000
47.3800 7793.3050
47.4000 9512.3700
47.4200 11400.6375
47.4400 13639.8900
47.4600 15751.8225
47.4800 17413.5250
47.5000 18637.4225
47.5200 19217.6725
47.5400 19025.2825
47.5600 18798.9900
47.5800 18418.7875
47.6000 17551.7150
47.6200 16627.5375
47.6400 15804.4575
47.6600 14427.7975
47.6800 12184.2225
47.7000 10320.5425
47.7200 8882.8700
47.7400 7467.3450
47.7600 6290.6925
47.7800 5477.7800
47.8000 4885.2275
47.8200 4100.1000
47.8400 3393.0325
47.8600 3065.5225
47.8800 2824.3100
47.9000 2418.4225
47.9200 2258.3550
47.9400 2245.6025
47.9600 2130.9125
47.9800 2043.1925
48.0000 1938.3350
48.0200 1878.9300
48.0400 1897.0025
48.0600 1850.6900
48.0800 1791.6675
48.1000 1796.0600
48.1200 1756.0775
48.1400 1760.5700
48.1600 1742.9500
48.1800 1717.9850
48.2000 1728.5125
48.2200 1664.0775
48.2400 1629.8075
48.2600 1567.2300
48.2800 1565.6525
48.3000 1699.3725
48.3200 1722.9375
48.3400 1713.9325
48.3600 1807.2050
48.3800 1849.1975
48.4000 1746.0200
48.4200 1671.0300
48.4400 1705.5350
48.4600 1667.9300
48.4800 1664.9925
48.5000 1660.0300
48.5200 1569.1400
48.5400 1520.2750
48.5600 1534.4425
48.5800 1614.8800
48.6000 1618.8375
48.6200 1601.0775
48.6400 1633.6900
48.6600 1663.3825
48.6800 1713.7225
48.7000 1667.8925
48.7200 1582.6475
48.7400 1614.3675
48.7600 1745.0300
48.7800 1712.3350
48.8000 1625.6600
48.8200 1598.3650
48.8400 1566.9900
48.8600 1696.1575
48.8800 1734.8000
48.9000 1571.5400
48.9200 1440.1075
48.9400 1477.7775
48.9600 1588.8750
48.9800 1555.9125
49.0000 1534.8325
49.0200 1635.4100
49.0400 1661.4700
49.0600 1603.1475
49.0800 1592.2425
49.1000 1560.9300
49.1200 1503.7425
49.1400 1508.8925
49.1600 1516.3900
49.1800 1538.4600
49.2000 1515.0375
49.2200 1397.8475
49.2400 1376.3325
49.2600 1485.4425
49.2800 1567.1900
49.3000 1488.8225
49.3200 1473.0100
49.3400 1507.3200
49.3600 1487.8775
49.3800 1491.4175
49.4000 1470.4650
49.4200 1539.8125
49.4400 1685.2625
49.4600 1672.8525
49.4800 1578.5750
49.5000 1511.2150
49.5200 1500.9250
49.5400 1456.2700
49.5600 1464.6550
49.5800 1533.1100
49.6000 1520.7225
49.6200 1542.3275
49.6400 1523.9100
49.6600 1474.7850
49.6800 1449.5725
49.7000 1476.0550
49.7200 1516.6675
49.7400 1508.1275
49.7600 1517.0775
49.7800 1507.7250
49.8000 1504.6675
49.8200 1559.1275
49.8400 1638.5825
49.8600 1713.1800
49.8800 1630.8300
49.9000 1529.2625
49.9200 1597.2475
49.9400 1662.5925
49.9600 1679.4450
49.9800 1666.1175
50.0000 1594.8375
50.0200 1541.4875
50.0400 1580.1425
50.0600 1488.8575
50.0800 1502.9550
50.1000 1658.6775
50.1200 1581.4600
50.1400 1517.1725
50.1600 1520.4175
50.1800 1516.9975
50.2000 1588.5625
50.2200 1493.0050
50.2400 1481.6475
50.2600 1519.1700
50.2800 1429.0875
50.3000 1577.7925
50.3200 1699.5400
50.3400 1585.9025
50.3600 1474.5475
50.3800 1492.4125
50.4000 1541.8150
50.4200 1541.5200
50.4400 1563.0050
50.4600 1557.7600
50.4800 1626.7000
50.5000 1614.8450
50.5200 1525.2775
50.5400 1482.3725
50.5600 1416.5300
50.5800 1446.4400
50.6000 1449.4675
50.6200 1458.9925
50.6400 1478.8400
50.6600 1526.0350
50.6800 1578.9750
50.7000 1473.6050
50.7200 1497.5300
50.7400 1616.7900
50.7600 1646.1425
50.7800 1624.3900
50.8000 1549.5175
50.8200 1470.1750
50.8400 1395.4175
50.8600 1501.8775
50.8800 1646.0075
50.9000 1616.0900
50.9200 1608.7900
50.9400 1667.0050
50.9600 1653.6625
50.9800 1536.4450
51.0000 1546.9875
51.0200 1570.0175
51.0400 1445.0250
51.0600 1366.4525
51.0800 1497.6875
51.1000 1658.5425
51.1200 1649.6875
51.1400 1557.5075
51.1600 1567.5875
51.1800 1591.0575
51.2000 1545.8825
51.2200 1512.0525
51.2400 1529.8100
51.2600 1499.0200
51.2800 1416.6675
51.3000 1500.9650
51.3200 1499.0450
51.3400 1349.2425
51.3600 1418.1725
51.3800 1587.9200
51.4000 1578.6575
51.4200 1503.8450
51.4400 1533.9725
51.4600 1566.3950
51.4800 1550.0900
51.5000 1486.7425
51.5200 1488.2525
51.5400 1461.4900
51.5600 1383.5075
51.5800 1433.6800
51.6000 1428.7800
51.6200 1404.2950
51.6400 1408.2475
51.6600 1404.2100
51.6800 1412.5425
51.7000 1404.0425
51.7200 1437.9550
51.7400 1533.8250
51.7600 1595.9550
51.7800 1557.8475
51.8000 1529.3675
51.8200 1550.0000
51.8400 1566.8250
51.8600 1574.9200
51.8800 1541.4300
51.9000 1432.5500
51.9200 1408.8800
51.9400 1437.2275
51.9600 1357.8700
51.9800 1249.4625
52.0000 1300.9925
52.0200 1450.3800
52.0400 1529.5075
52.0600 1566.6675
52.0800 1512.0125
52.1000 1517.1900
52.1200 1579.2050
52.1400 1511.8700
52.1600 1441.6675
52.1800 1492.1075
52.2000 1495.4300
52.2200 1492.0325
52.2400 1600.5825
52.2600 1645.6525
52.2800 1629.2025
52.3000 1536.6700
52.3200 1450.0725
52.3400 1487.7525
52.3600 1386.3900
52.3800 1367.5950
52.4000 1428.7750
52.4200 1429.5575
52.4400 1479.2025
52.4600 1579.9825
52.4800 1607.7675
52.5000 1503.8475
52.5200 1512.8875
52.5400 1570.9400
52.5600 1532.9100
52.5800 1525.3525
52.6000 1512.0425
52.6200 1470.9375
52.6400 1474.9300
52.6600 1420.4475
52.6800 1446.4300
52.7000 1554.4825
52.7200 1654.6925
52.7400 1565.4050
52.7600 1517.5075
52.7800 1574.6500
52.8000 1512.3250
52.8200 1575.7000
52.8400 1612.1150
52.8600 1554.0625
52.8800 1411.4125
52.9000 1451.4050
52.9200 1646.0800
52.9400 1658.1925
52.9600 1519.8125
52.9800 1370.5875
53.0000 1417.3025
53.0200 1386.6150
53.0400 1375.7800
53.0600 1487.6775
53.0800 1508.3325
53.1000 1529.3450
53.1200 1562.6075
53.1400 1541.3800
53.1600 1516.7375
53.1800 1529.2025
53.2000 1520.7250
53.2200 1495.7250
53.2400 1504.3475
53.2600 1470.3625
53.2800 1467.1025
53.3000 1504.0575
53.3200 1470.6500
53.3400 1492.0325
53.3600 1516.5200
53.3800 1504.2025
53.4000 1478.9075
53.4200 1361.7225
53.4400 1371.6875
53.4600 1491.8900
53.4800 1504.0550
53.5000 1466.4425
53.5200 1454.2800
53.5400 1542.3475
53.5600 1637.6900
53.5800 1645.7200
53.6000 1553.4425
53.6200 1517.0500
53.6400 1575.1550
53.6600 1469.7150
53.6800 1408.8750
53.7000 1592.8325
53.7200 1615.7300
53.7400 1588.1650
53.7600 1603.6550
53.7800 1524.7625
53.8000 1542.0625
53.8200 1507.6175
53.8400 1584.7725
53.8600 1632.3700
53.8800 1478.6425
53.9000 1433.4150
53.9200 1483.7400
53.9400 1546.0375
53.9600 1608.7425
53.9800 1582.6750
54.0000 1516.6675
54.0200 1550.3325
54.0400 1642.2500
54.0600 1674.7500
54.0800 1624.7475
54.1000 1671.5500
54.1200 1670.1125
54.1400 1536.8600
54.1600 1521.3050
54.1800 1655.0700
54.2000 1800.6050
54.2200 1765.7125
54.2400 1670.7900
54.2600 1750.8750
54.2800 1673.3300
54.3000 1499.8225
54.3200 1554.9200
54.3400 1675.5350
54.3600 1661.8300
54.3800 1625.2700
54.4000 1679.4825
54.4200 1847.3275
54.4400 1995.9700
54.4600 2071.5200
54.4800 2036.4450
54.5000 2021.7100
54.5200 2167.4075
54.5400 2208.0550
54.5600 2208.6125
54.5800 2165.9150
54.6000 2217.9875
54.6200 2303.8350
54.6400 2388.7850
54.6600 2428.3550
54.6800 2252.9675
54.7000 2221.6525
54.7200 2249.5175
54.7400 2339.0050
54.7600 2420.2975
54.7800 2425.5875
54.8000 2352.7400
54.8200 2292.3575
54.8400 2350.0000
54.8600 2328.9175
54.8800 2215.5650
54.9000 2188.2525
54.9200 2224.6975
54.9400 2065.0450
54.9600 1996.5950
54.9800 2045.6800
55.0000 2117.6925
55.0200 2111.4200
55.0400 1839.3925
55.0600 1768.0150
55.0800 1900.3125
55.1000 1823.7450
55.1200 1716.5625
55.1400 1771.6225
55.1600 1824.8950
55.1800 1875.7425
55.2000 1899.5725
55.2200 1803.3650
55.2400 1741.6675
55.2600 1821.8575
55.2800 1891.5575
55.3000 1782.0300
55.3200 1695.9975
55.3400 1818.0875
55.3600 1789.9100
55.3800 1670.9975
55.4000 1721.3300
55.4200 1703.4450
55.4400 1726.0000
55.4600 1791.5550
55.4800 1804.4475
55.5000 1799.6625
55.5200 1736.9925
55.5400 1678.8850
55.5600 1671.0025
55.5800 1721.3450
55.6000 1830.1375
55.6200 1836.6425
55.6400 1791.8975
55.6600 1812.5575
55.6800 1761.7500
55.7000 1767.4775
55.7200 1765.8525
55.7400 1733.6825
55.7600 1859.7350
55.7800 1945.6575
55.8000 1840.3750
55.8200 1762.6775
55.8400 1791.9025
55.8600 1837.9150
55.8800 1917.3775
55.9000 1970.8925
55.9200 1975.0000
55.9400 2072.2075
55.9600 2153.9875
55.9800 2052.9050
56.0000 2085.0175
56.0200 2250.7250
56.0400 2261.9550
56.0600 2275.7275
56.0800 2536.3700
56.1000 2707.8475
56.1200 2890.6075
56.1400 3032.3550
56.1600 3059.6800
56.1800 3445.9575
56.2000 3779.8425
56.2200 4049.0950
56.2400 4554.1900
56.2600 5078.5800
56.2800 5578.8350
56.3000 6222.3650
56.3200 7196.2475
56.3400 8392.4050
56.3600 9499.1325
56.3800 11053.1400
56.4000 12916.4600
56.4200 14926.0775
56.4400 17242.0175
56.4600 20269.9825
56.4800 23368.4425
56.5000 25903.0525
56.5200 27914.9175
56.5400 28240.2300
56.5600 27574.6925
56.5800 26230.1250
56.6000 24865.7175
56.6200 24304.9200
56.6400 23732.2475
56.6600 23010.9675
56.6800 21546.0825
56.7000 19442.7250
56.7200 17375.7925
56.7400 15203.6100
56.7600 13266.7650
56.7800 11497.9250
56.8000 9741.8750
56.8200 8361.9750
56.8400 7114.7950
56.8600 6035.2850
56.8800 5265.4050
56.9000 4502.0725
56.9200 3943.4675
56.9400 3605.5200
56.9600 3255.7750
56.9800 2935.1325
57.0000 2673.3350
57.0200 2528.5900
57.0400 2457.8200
57.0600 2226.1525
57.0800 2122.1800
57.1000 2208.3325
57.1200 2174.4875
57.1400 2014.7425
57.1600 1794.3575
57.1800 1759.2325
57.2000 1833.5900
57.2200 1892.3100
57.2400 1882.5625
57.2600 1879.8725
57.2800 1878.4600
57.3000 1858.7175
57.3200 1786.0225
57.3400 1704.3600
57.3600 1716.6675
57.3800 1780.1300
57.4000 1938.9775
57.4200 1893.7150
57.4400 1838.7200
57.4600 1882.8200
57.4800 1786.5375
57.5000 1758.8475
57.5200 1702.8200
57.5400 1646.2825
57.5600 1717.3075
57.5800 1758.3325
57.6000 1779.4875
57.6200 1829.6150
57.6400 1820.2575
57.6600 1702.9500
57.6800 1671.5375
57.7000 1661.6675
57.7200 1566.0275
57.7400 1651.9175
57.7600 1720.0025
57.7800 1645.5150
57.8000 1650.3825
57.8200 1645.3875
57.8400 1692.8150
57.8600 1775.1275
57.8800 1741.0300
57.9000 1674.6175
57.9200 1662.6900
57.9400 1615.7775
57.9600 1604.8650
57.9800 1620.3900
58.0000 1578.9775
58.0200 1570.8975
58.0400 1604.6100
58.0600 1607.9525
58.0800 1659.4725
58.1000 1593.7450
58.1200 1648.6775
58.1400 1841.7925
58.1600 1714.6475
58.1800 1574.8750
58.2000 1575.1250
58.2200 1651.0075
58.2400 1670.1425
58.2600 1684.2125
58.2800 1665.5350
58.3000 1595.8950
58.3200 1545.0175
58.3400 1474.7500
58.3600 1585.2100
58.3800 1581.4575
58.4000 1576.7500
58.4200 1733.9575
58.4400 1626.9850
58.4600 1538.3100
58.4800 1714.3050
58.5000 1807.9600
58.5200 1694.5275
58.5400 1570.2750
58.5600 1562.9350
58.5800 1633.9525
58.6000 1704.6000
58.6200 1699.5050
58.6400 1632.8400
58.6600 1625.3700
58.6800 1620.4025
58.7000 1638.1775
58.7200 1712.9300
58.7400 1678.2450
58.7600 1595.5275
58.7800 1558.0875
58.8000 1676.9600
58.8200 1774.5100
58.8400 1674.0225
58.8600 1553.3725
58.8800 1512.6825
58.9000 1592.6425
58.9200 1645.6500
58.9400 1607.9675
58.9600 1676.3350
58.9800 1614.4825
59.0000 1487.8025
59.0200 1580.1950
59.0400 1709.1800
59.0600 1753.9850
59.0800 1661.3525
59.1000 1473.4325
59.1200 1446.9775
59.1400 1478.5050
59.1600 1509.4150
59.1800 1634.0525
59.2000 1674.8800
59.2200 1599.0425
59.2400 1554.4650
59.2600 1634.1700
59.2800 1636.7250
59.3000 1655.1800
59.3200 1610.8925
59.3400 1546.4875
59.3600 1608.5700
59.3800 1620.7750
59.4000 1557.5025
59.4200 1592.9700
59.4400 1552.3325
59.4600 1534.8700
59.4800 1705.0525
59.5000 1711.7325
59.5200 1599.1750
59.5400 1537.4400
59.5600 1677.0000
59.5800 1719.4825
59.6000 1650.3525
59.6200 1636.9725
59.6400 1659.1525
59.6600 1703.9900
59.6800 1598.7150
59.7000 1512.5575
59.7200 1533.5675
59.7400 1680.9725
59.7600 1728.0600
59.7800 1666.9000
59.8000 1691.7825
59.8200 1712.6750
59.8400 1686.9775
59.8600 1637.3250
59.8800 1701.0425
59.9000 1813.0200
59.9200 1706.3675
59.9400 1625.8075
59.9600 1628.4175
59.9800 1642.5900
60.0000 1649.1925
60.0200 1578.9950
60.0400 1499.0800
60.0600 1488.2475
60.0800 1643.0450
60.1000 1665.6350
60.1200 1629.6825
60.1400 1683.5625
60.1600 1666.2075
60.1800 1624.8850
60.2000 1603.9950
60.2200 1604.3375
60.2400 1561.7575
60.2600 1457.6475
60.2800 1551.9400
60.3000 1678.9950
60.3200 1649.7725
60.3400 1574.2025
60.3600 1542.0075
60.3800 1570.8900
60.4000 1608.7875
60.4200 1574.0900
60.4400 1550.5675
60.4600 1638.1250
60.4800 1649.5450
60.5000 1612.4425
60.5200 1646.3425
60.5400 1645.3225
60.5600 1718.1400
60.5800 1702.5250
60.6000 1612.8975
60.6200 1662.7825
60.6400 1763.5750
60.6600 1727.6375
60.6800 1726.4700
60.7000 1846.0025
60.7200 1718.9675
60.7400 1688.9150
60.7600 1686.0850
60.7800 1655.1275
60.8000 1758.7850
60.8200 1749.4350
60.8400 1682.9950
60.8600 1666.7800
60.8800 1713.0100
60.9000 1737.3300
60.9200 1657.4275
60.9400 1680.3550
60.9600 1627.3000
60.9800 1601.4725
61.0000 1585.8575
61.0200 1644.0450
61.0400 1808.2200
61.0600 1749.3200
61.0800 1674.6600
61.1000 1738.6900
61.1200 1668.7350
61.1400 1508.2200
61.1600 1652.0450
61.1800 1745.0950
61.2000 1708.5600
61.2200 1720.7775
61.2400 1712.4425
61.2600 1657.6500
61.2800 1595.6625
61.3000 1705.8200
61.3200 1719.4075
61.3400 1591.3250
61.3600 1634.2475
61.3800 1636.6425
61.4000 1663.7025
61.4200 1902.0625
61.4400 1986.6400
61.4600 1929.2250
61.4800 1819.2825
61.5000 1695.6600
61.5200 1708.6800
61.5400 1619.2775
61.5600 1580.1475
61.5800 1675.3475
61.6000 1653.5300
61.6200 1557.6375
61.6400 1643.5225
61.6600 1707.4025
61.6800 1595.1925
61.7000 1676.7475
61.7200 1888.7250
61.7400 1894.7225
61.7600 1727.9375
61.7800 1700.8200
61.8000 1804.8125
61.8200 1752.8150
61.8400 1713.2650
61.8600 1787.7950
61.8800 1795.6550
61.9000 1715.7200
61.9200 1717.6150
61.9400 1681.9075
61.9600 1680.5350
61.9800 1804.5850
62.0000 1753.0300
62.0200 1793.3425
62.0400 1942.1475
62.0600 1949.6400
62.0800 1920.7725
62.1000 1815.2175
62.1200 1763.1650
62.1400 1753.3775
62.1600 1708.4550
62.1800 1835.0400
62.2000 2047.2375
62.2200 2040.1975
62.2400 2068.5075
62.2600 2128.2425
62.2800 1994.7850
62.3000 1925.0000
62.3200 2115.2900
62.3400 2325.3725
62.3600 2404.9775
62.3800 2416.0425
62.4000 2429.9825
62.4200 2614.4475
62.4400 2809.3425
62.4600 2938.4475
62.4800 3203.0425
62.5000 3421.1500
62.5200 3395.1325
62.5400 3557.3000
62.5600 4134.8750
62.5800 4863.8675
62.6000 5280.1350
62.6200 5697.1050
62.6400 6519.8400
62.6600 7651.9625
62.6800 8875.5600
62.7000 10410.9875
62.7200 12568.8250
62.7400 15125.7625
62.7600 17723.8475
62.7800 20867.7550
62.8000 23440.3100
62.8200 25170.7075
62.8400 26560.1475
62.8600 26675.1875
62.8800 25848.9925
62.9000 25262.1600
62.9200 24373.5225
62.9400 23105.5875
62.9600 22268.1300
62.9800 21006.9725
63.0000 19162.4825
63.0200 17467.5625
63.0400 16088.5600
63.0600 14543.9050
63.0800 12937.3425
63.1000 11407.6325
63.1200 9658.5550
63.1400 8068.4200
63.1600 6865.1375
63.1800 5770.1975
63.2000 4898.0425
63.2200 4270.2250
63.2400 3618.4600
63.2600 3067.6950
63.2800 2849.2675
63.3000 2744.7300
63.3200 2581.5600
63.3400 2496.0550
63.3600 2474.4025
63.3800 2293.2125
63.4000 2073.6450
63.4200 2025.4525
63.4400 2007.5750
63.4600 1932.7225
63.4800 1904.2425
63.5000 1853.1650
63.5200 1791.5125
63.5400 1897.9325
63.5600 1927.6825
63.5800 1900.9400
63.6000 1962.7375
63.6200 1873.1000
63.6400 1741.0300
63.6600 1674.3600
63.6800 1722.3600
63.7000 1719.3000
63.7200 1701.1350
63.7400 1766.8300
63.7600 1830.2325
63.7800 1751.6150
63.8000 1705.7400
63.8200 1757.8350
63.8400 1716.3325
63.8600 1708.5025
63.8800 1801.6900
63.9000 1832.3150
63.9200 1694.0425
63.9400 1663.6150
63.9600 1631.6100
63.9800 1741.4000
64.0000 1763.3550
64.0200 1714.6900
64.0400 1727.3175
64.0600 1594.8600
64.0800 1635.1125
64.1000 1746.4600
64.1200 1694.1250
64.1400 1616.6675
64.1600 1616.6675
64.1800 1612.4075
64.2000 1548.7125
64.2200 1581.1075
64.2400 1645.3700
64.2600 1731.5025
64.2800 1722.5575
64.3000 1561.2725
64.3200 1721.4150
64.3400 1750.2500
64.3600 1600.3850
64.3800 1608.1400
64.4000 1663.9575
64.4200 1686.6200
64.4400 1658.5300
64.4600 1598.4200
64.4800 1516.2700
64.5000 1606.6650
64.5200 1708.3325
64.5400 1640.0500
64.5600 1685.9750
64.5800 1783.1300
64.6000 1723.7675
64.6200 1679.2700
64.6400 1627.8150
64.6600 1528.0150
64.6800 1534.5950
64.7000 1600.4225
64.7200 1612.3925
64.7400 1599.7850
64.7600 1570.2950
64.7800 1605.5750
64.8000 1624.1275
64.8200 1531.8000
64.8400 1492.1075
64.8600 1525.4425
64.8800 1537.3875
64.9000 1524.7750
64.9200 1503.8275
64.9400 1495.9475
64.9600 1589.8975
64.9800 1597.9325
65.0000 1696.2900
65.0200 1746.9775
65.0400 1577.4125
65.0600 1542.3725
65.0800 1592.3775
65.1000 1612.3800
65.1200 1612.6200
65.1400 1663.8250
65.1600 1635.4375
65.1800 1562.3775
65.2000 1584.0700
65.2200 1565.4325
65.2400 1486.3825
65.2600 1518.6675
65.2800 1437.3900
65.3000 1445.9675
65.3200 1652.0375
65.3400 1729.5500
65.3600 1745.9625
65.3800 1668.3700
65.4000 1660.4200
65.4200 1712.1075
65.4400 1674.2075
65.4600 1645.7000
65.4800 1676.0700
65.5000 1764.2475
65.5200 1704.8150
65.5400 1561.2750
65.5600 1550.8225
65.5800 1549.1725
65.6000 1550.8325
65.6200 1618.0625
65.6400 1856.4575
65.6600 1843.5025
65.6800 1671.2600
65.7000 1657.4750
65.7200 1594.5375
65.7400 1631.6275
65.7600 1725.8750
65.7800 1737.0600
65.8000 1772.4550
65.8200 1911.5975
65.8400 1969.7875
65.8600 1933.0325
65.8800 1808.4200
65.9000 1795.0125
65.9200 1883.3325
65.9400 1904.9375
65.9600 2050.3250
65.9800 2235.8275
66.0000 2369.1750
66.0200 2294.9525
66.0400 2296.4300
66.0600 2490.2150
66.0800 2579.9700
66.1000 2786.1200
66.1200 2906.3800
66.1400 3256.7275
66.1600 3837.2375
66.1800 4163.3050
66.2000 4383.0025
66.2200 4483.6700
66.2400 4747.4600
66.2600 5369.2850
66.2800 5755.3625
66.3000 6234.5525
66.3200 6441.6950
66.3400 6080.7100
66.3600 5655.8050
66.3800 5165.1300
66.4000 4754.8750
66.4200 4722.3775
66.4400 4628.3450
66.4600 4385.8750
66.4800 4397.8325
66.5000 4345.9775
66.5200 4023.3975
66.5400 3708.2425
66.5600 3512.1975
66.5800 3242.5050
66.6000 2896.0600
66.6200 2759.8500
66.6400 2530.2150
66.6600 2182.7000
66.6800 2122.5725
66.7000 2005.6975
66.7200 1949.5500
66.7400 1955.1850
66.7600 1865.4800
66.7800 1776.1800
66.8000 1734.1350
66.8200 1715.0550
66.8400 1740.1375
66.8600 1844.1150
66.8800 1812.9700
66.9000 1776.6525
66.9200 1672.7250
66.9400 1672.5200
66.9600 1743.9400
66.9800 1664.5500
67.0000 1699.4525
67.0200 1709.7150
67.0400 1667.0975
67.0600 1714.4500
67.0800 1754.3850
67.1000 1797.8075
67.1200 1736.8100
67.1400 1641.2225
67.1600 1686.0150
67.1800 1680.6375
67.2000 1694.8325
67.2200 1728.0300
67.2400 1673.1700
67.2600 1720.8100
67.2800 1756.4800
67.3000 1804.1925
67.3200 1905.8075
67.3400 1893.7125
67.3600 1911.1800
67.3800 2099.3000
67.4000 2247.0325
67.4200 2231.4025
67.4400 2200.0000
67.4600 2349.9725
67.4800 2381.8475
67.5000 2410.8400
67.5200 2569.6500
67.5400 2638.7500
67.5600 2932.2650
67.5800 3347.3700
67.6000 3469.0525
67.6200 3676.0725
67.6400 4051.4550
67.6600 4332.7725
67.6800 4728.9200
67.7000 5324.8775
67.7200 5850.4200
67.7400 6374.0600
67.7600 7225.2825
67.7800 8164.6025
67.8000 9392.4100
67.8200 11150.2150
67.8400 12684.8825
67.8600 13708.0075
67.8800 14805.3200
67.9000 15817.2300
67.9200 16268.3700
67.9400 16434.5075
67.9600 15778.6325
67.9800 14732.1725
68.0000 14130.1025
68.0200 13466.7800
68.0400 12754.1700
68.0600 12408.1350
68.0800 11953.1200
68.1000 11327.2900
68.1200 10369.3025
68.1400 9388.3850
68.1600 8521.2050
68.1800 7353.6250
68.2000 6651.0650
68.2200 6249.8175
68.2400 5544.9800
68.2600 4576.0025
68.2800 4106.9550
68.3000 3787.8850
68.3200 3227.9725
68.3400 2954.5525
68.3600 2800.7275
68.3800 2681.4200
68.4000 2438.4625
68.4200 2308.3575
68.4400 2434.6775
68.4600 2279.8625
68.4800 2190.5450
68.5000 2117.6300
68.5200 2037.3100
68.5400 2173.3325
68.5600 2119.4475
68.5800 2192.9850
68.6000 2368.0225
68.6200 2315.7200
68.6400 2285.3900
68.6600 2376.0025
68.6800 2460.4125
68.7000 2596.2125
68.7200 2714.2525
68.7400 2647.4725
68.7600 2877.9025
68.7800 3318.7725
68.8000 3456.9000
68.8200 3686.1150
68.8400 3982.2425
68.8600 4398.1425
68.8800 4796.6525
68.9000 5240.8475
68.9200 5710.2700
68.9400 6393.9175
68.9600 7286.6725
68.9800 8076.2800
69.0000 8820.4125
69.0200 9259.1275
69.0400 9554.7075
69.0600 9565.7100
69.0800 9237.5450
69.1000 8756.1275
69.1200 8168.0900
69.1400 7890.8800
69.1600 7586.8250
69.1800 7282.3375
69.2000 6877.1925
69.2200 6638.1500
69.2400 6646.7725
69.2600 6159.4300
69.2800 5490.5650
69.3000 5025.7425
69.3200 4470.7775
69.3400 3992.5850
69.3600 3652.9200
69.3800 3253.2200
69.4000 2948.2275
69.4200 2725.2250
69.4400 2451.3475
69.4600 2316.6675
69.4800 2114.4125
69.5000 1936.2025
69.5200 1906.5950
69.5400 1919.2875
69.5600 1946.2725
69.5800 1867.0550
69.6000 1800.0000
69.6200 1670.8450
69.6400 1548.2075
69.6600 1630.2975
69.6800 1712.9525
69.7000 1730.5325
69.7200 1663.0525
69.7400 1646.2675
69.7600 1646.3000
69.7800 1514.7750
69.8000 1539.9125
69.8200 1680.6350
69.8400 1687.8900
69.8600 1607.2825
69.8800 1506.3000
69.9000 1597.7125
69.9200 1596.7725
69.9400 1526.9375
69.9600 1518.4000
69.9800 1444.1300
70.0000 1344.1025
70.0200 1425.8400
70.0400 1534.3275
70.0600 1662.9750
70.0800 1660.3000
70.1000 1480.5775
70.1200 1488.7925
70.1400 1539.6300
70.1600 1501.6075
70.1800 1553.5450
70.2000 1505.2975
70.2200 1396.8850
70.2400 1440.6400
70.2600 1430.6825
70.2800 1420.8825
70.3000 1435.9100
70.3200 1410.9025
70.3400 1385.8950
70.3600 1497.3075
70.3800 1572.8400
70.4000 1492.4000
70.4200 1451.0900
70.4400 1609.2050
70.4600 1687.2600
70.4800 1460.0900
70.5000 1492.5200
70.5200 1567.1775
70.5400 1474.1125
70.5600 1394.3575
70.5800 1400.9350
70.6000 1461.7500
70.6200 1530.7225
70.6400 1514.5075
70.6600 1484.4900
70.6800 1377.7325
70.7000 1443.6675
70.7200 1387.2325
70.7400 1301.1325
70.7600 1428.5000
70.7800 1471.4325
70.8000 1569.1000
70.8200 1524.8625
70.8400 1377.3050
70.8600 1355.9850
70.8800 1505.1500
70.9000 1550.9950
70.9200 1436.6200
70.9400 1345.0625
70.9600 1374.1075
70.9800 1387.9300
71.0000 1467.3075
71.0200 1484.1225
71.0400 1504.0450
71.0600 1506.7900
71.0800 1470.1950
71.1000 1461.8600
71.1200 1381.3750
71.1400 1426.0700
71.1600 1500.0000
71.1800 1480.7250
71.2000 1365.4100
71.2200 1315.7900
71.2400 1381.6100
71.2600 1358.6975
71.2800 1437.5100
71.3000 1486.3050
71.3200 1400.2575
71.3400 1329.2775
71.3600 1332.5625
71.3800 1325.7550
71.4000 1385.9625
71.4200 1451.3775
71.4400 1332.0250
71.4600 1256.2500
71.4800 1290.9875
71.5000 1391.0775
71.5200 1401.2975
71.5400 1381.2875
71.5600 1347.7775
71.5800 1409.3800
71.6000 1440.8200
71.6200 1411.7800
71.6400 1359.4425
71.6600 1285.8625
71.6800 1307.2875
71.7000 1410.2475
71.7200 1355.3975
71.7400 1302.9525
71.7600 1233.2275
71.7800 1283.0500
71.8000 1314.1025
71.8200 1327.5925
71.8400 1353.4125
71.8600 1384.4700
71.8800 1304.8575
71.9000 1361.5325
71.9200 1514.1425
71.9400 1548.4600
71.9600 1452.7375
71.9800 1386.7225
72.0000 1502.0625
72.0200 1563.5325
72.0400 1515.3250
72.0600 1417.3125
72.0800 1371.6275
72.1000 1504.0550
72.1200 1487.3600
72.1400 1451.4600
72.1600 1514.7900
72.1800 1427.1950
72.2000 1519.3325
72.2200 1583.4950
72.2400 1564.9625
72.2600 1530.0850
72.2800 1614.8600
72.3000 1676.6750
72.3200 1671.6675
72.3400 1740.0550
72.3600 1753.2875
72.3800 1803.4875
72.4000 1920.2025
72.4200 2067.0250
72.4400 2329.1675
72.4600 2533.7075
72.4800 2658.7575
72.5000 2728.4600
72.5200 3008.5375
72.5400 3263.9550
72.5600 3513.3175
72.5800 3409.5575
72.6000 3217.9375
72.6200 3014.8150
72.6400 3011.2425
72.6600 2916.3550
72.6800 2823.5250
72.7000 2787.7300
72.7200 2707.6275
72.7400 2563.3675
72.7600 2547.5225
72.7800 2425.8100
72.8000 2314.8300
72.8200 2216.7375
72.8400 2046.3050
72.8600 2010.6700
72.8800 1895.6475
72.9000 1808.3325
72.9200 1655.1300
72.9400 1507.2300
72.9600 1459.6575
72.9800 1383.4700
73.0000 1418.4875
73.0200 1471.7925
73.0400 1454.4850
73.0600 1477.5950
73.0800 1356.1850
73.1000 1318.0675
73.1200 1386.0050
73.1400 1346.5650
73.1600 1364.9950
73.1800 1363.9150
73.2000 1336.5075
73.2200 1364.3075
73.2400 1445.3275
73.2600 1307.5550
73.2800 1246.5625
73.3000 1233.5800
73.3200 1286.0525
73.3400 1359.2600
73.3600 1390.5675
73.3800 1285.7575
73.4000 1367.3675
73.4200 1468.7350
73.4400 1287.6450
73.4600 1289.5800
73.4800 1259.3050
73.5000 1278.2375
73.5200 1424.1750
73.5400 1373.6375
73.5600 1297.8775
73.5800 1296.8975
73.6000 1252.8825
73.6200 1314.0675
73.6400 1340.4500
73.6600 1256.7875
73.6800 1263.9250
73.7000 1296.9225
73.7200 1210.5975
73.7400 1268.8550
73.7600 1217.4625
73.7800 1150.0000
73.8000 1276.5950
73.8200 1323.6050
73.8400 1398.1400
73.8600 1434.1400
73.8800 1329.7650
73.9000 1322.6525
73.9200 1355.3000
73.9400 1421.9675
73.9600 1410.5700
73.9800 1308.9800
74.0000 1192.2575
74.0200 1155.3200
74.0400 1264.7975
74.0600 1319.6725
74.0800 1279.3475
74.1000 1274.3400
74.1200 1197.9000
74.1400 1192.7500
74.1600 1275.4925
74.1800 1313.6850
74.2000 1348.8025
74.2200 1280.9050
74.2400 1222.6050
74.2600 1227.4025
74.2800 1174.2350
74.3000 1227.6950
74.3200 1291.1425
74.3400 1219.2225
74.3600 1239.6725
74.3800 1226.4575
74.4000 1243.1825
74.4200 1299.0775
74.4400 1278.8250
74.4600 1317.8475
74.4800 1312.0975
74.5000 1194.1275
74.5200 1190.4750
74.5400 1270.9400
74.5600 1223.9575
74.5800 1286.6150
74.6000 1336.2275
74.6200 1180.8900
74.6400 1198.0775
74.6600 1309.9825
74.6800 1401.6975
74.7000 1444.2575
74.7200 1357.0800
74.7400 1280.9825
74.7600 1151.7000
74.7800 1173.8500
74.8000 1375.6825
74.8200 1315.6550
74.8400 1219.6975
74.8600 1147.8725
74.8800 1210.1800
74.9000 1302.3750
74.9200 1269.9050
74.9400 1258.2075
74.9600 1327.3675
74.9800 1126.3775
75.0000 1212.8375
75.0200 1311.1350
75.0400 1358.1575
75.0600 1300.2275
75.0800 1230.6075
75.1000 1272.1600
75.1200 1366.6450
75.1400 1288.8350
75.1600 1149.8925
75.1800 1208.5450
75.2000 1263.9050
75.2200 1238.7850
75.2400 1247.3225
75.2600 1135.4575
75.2800 1186.7950
75.3000 1336.7700
75.3200 1366.5375
75.3400 1307.9025
75.3600 1345.0200
75.3800 1352.5500
75.4000 1279.8775
75.4200 1221.8925
75.4400 1225.2125
75.4600 1334.6875
75.4800 1315.7075
75.5000 1215.6525
75.5200 1188.9775
75.5400 1219.9125
75.5600 1244.6400
75.5800 1289.6100
75.6000 1234.7125
75.6200 1160.3250
75.6400 1294.8225
75.6600 1270.1575
75.6800 1207.9550
75.7000 1285.2950
75.7200 1273.7800
75.7400 1295.5650
75.7600 1322.3675
75.7800 1290.7700
75.8000 1240.7400
75.8200 1287.8600
75.8400 1185.1225
75.8600 1125.0000
75.8800 1125.0000
75.9000 1096.3325
75.9200 1146.4550
75.9400 1232.4300
75.9600 1292.8200
75.9800 1388.8675
76.0000 1263.7950
76.0200 1197.4275
76.0400 1292.2700
76.0600 1269.8450
76.0800 1230.1150
76.1000 1172.9675
76.1200 1340.9400
76.1400 1494.4900
76.1600 1356.9250
76.1800 1318.1375
76.2000 1310.1125
76.2200 1300.0000
76.2400 1160.4375
76.2600 1070.9000
76.2800 1221.4300
76.3000 1250.8575
76.3200 1233.3325
76.3400 1268.3700
76.3600 1300.8675
76.3800 1343.4300
76.4000 1387.6050
76.4200 1400.0000
76.4400 1388.2725
76.4600 1318.7750
76.4800 1291.6675
76.5000 1350.4550
76.5200 1327.9300
76.5400 1308.3325
76.5600 1455.6775
76.5800 1534.3625
76.6000 1588.8975
76.6200 1626.0600
76.6400 1727.9525
76.6600 1671.9675
76.6800 1722.1875
76.7000 1793.9050
76.7200 2033.8125
76.7400 1822.1250
76.7600 2116.0600
76.7800 2408.2575
76.8000 2565.5025
76.8200 2602.3750
76.8400 2552.2900
76.8600 2819.8425
76.8800 3142.4225
76.9000 3410.3500
76.9200 3375.6200
76.9400 3441.1375
76.9600 3405.4075
76.9800 3183.0225
77.0000 2892.1750
77.0200 2910.4950
77.0400 2956.0150
77.0600 2741.6250
77.0800 2881.2500
77.1000 2653.1125
77.1200 2569.5425
77.1400 2492.7325
77.1600 2434.1525
77.1800 2249.5400
77.2000 2280.2200
77.2200 2146.9700
77.2400 1968.0850
77.2600 1809.6525
77.2800 1669.4500
77.3000 1688.0625
77.3200 1696.1600
77.3400 1557.6550
77.3600 1569.3000
77.3800 1524.5475
77.4000 1500.0000
77.4200 1451.1025
77.4400 1433.3325
77.4600 1482.3125
77.4800 1432.5975
77.5000 1334.7400
77.5200 1443.3675
77.5400 1374.9475
77.5600 1339.4825
77.5800 1446.2750
77.6000 1409.4300
77.6200 1321.6950
77.6400 1293.8300
77.6600 1248.4475
77.6800 1326.0250
77.7000 1296.4875
77.7200 1299.7600
77.7400 1320.7225
77.7600 1281.5975
77.7800 1334.9275
77.8000 1190.6450
77.8200 1133.3325
77.8400 1189.3225
77.8600 1258.1450
77.8800 1218.9150
77.9000 1393.3400
77.9200 1339.7350
77.9400 1043.8625
77.9600 1020.8575
77.9800 1173.0775
78.0000 1285.5600
78.0200 1139.0925
78.0400 1152.3400
78.0600 1187.5575
78.0800 1172.8150
78.1000 1191.8225
78.1200 1244.0600
78.1400 1207.9375
78.1600 1116.0100
78.1800 1224.1775
78.2000 1140.3625
78.2200 1239.0500
78.2400 1251.7050
78.2600 1140.3700
78.2800 1216.0500
78.3000 1250.0000
78.3200 1129.4125
78.3400 1123.4275
78.3600 1057.0475
78.3800 1128.7700
78.4000 1190.1725
78.4200 1250.9825
78.4400 1279.4225
78.4600 1104.6000
78.4800 1088.3325
78.5000 1048.8500
78.5200 1078.1275
78.5400 1174.9225
78.5600 1180.7725
78.5800 1219.9025
78.6000 1188.3925
78.6200 1239.2525
78.6400 1219.7500
78.6600 1137.5400
78.6800 1148.8700
78.7000 1197.0100
78.7200 1279.2975
78.7400 1338.7400
78.7600 1291.8450
78.7800 1210.3300
78.8000 1139.8875
78.8200 1170.3425
78.8400 1254.6425
78.8600 1190.6575
78.8800 1114.7225
78.9000 1164.9825
78.9200 1176.8300
78.9400 1350.7350
78.9600 1250.1800
78.9800 1117.0650
79.0000 1065.5700
79.0200 1077.9225
79.0400 1253.2375
79.0600 1182.2800
79.0800 1084.5475
79.1000 1197.6725
79.1200 1279.2225
79.1400 1331.0300
79.1600 1236.6125
79.1800 1116.3375
79.2000 1164.0050
79.2200 1170.1700
79.2400 1146.9075
79.2600 1135.0750
79.2800 1179.5125
79.3000 1152.0550
79.3200 1174.7025
79.3400 1295.7425
79.3600 1146.3275
79.3800 1113.2450
79.4000 1169.6900
79.4200 1170.0675
79.4400 1126.8375
79.4600 1070.1650
79.4800 1078.2775
79.5000 1216.4025
79.5200 1329.9025
79.5400 1263.3725
79.5600 1214.9925
79.5800 1054.8325
79.6000 1156.9250
79.6200 1118.1425
79.6400 1079.9325
79.6600 1115.1650
79.6800 1051.3075
79.7000 1019.9250
79.7200 1036.7950
79.7400 1068.5250
79.7600 1169.0750
79.7800 1265.6400
79.8000 1148.7375
79.8200 1197.4850
79.8400 1317.7650
79.8600 1159.5525
79.8800 1157.1675
79.9000 930.2425
79.9200 1165.6800
79.9400 1273.9225
79.9600 1147.9325
79.9800 1225.0675
80.0000 1243.2200
