*FILE_COMMENT ""
*FILE_MD5 ""
*FILE_MEMO ""
*FILE_OPERATOR "Administrator"
*FILE_PACKAGE_NAME ""
*FILE_PART_ID "GeneralMeasurement"
*FILE_SAMPLE ""
*FILE_SYSTEM_NAME "MiniFlex"
*FILE_TYPE "RAS_RAW"
*FILE_USERGROUP "Administrators"
*FILE_VERSION "1"
*HW_ATTACHMENT_NAME_INTERNAL "ASC8"
*HW_COUNTER_ID-0 "CUT0025"
*HW_COUNTER_ID-2 "CMC0020"
*HW_COUNTER_MONOCHRO_ID "CMC0020"
*HW_COUNTER_MONOCHRO_NAME "None"
*HW_COUNTER_MONOCHRO_NAME_INTERNAL "None"
*HW_COUNTER_NAME_INTERNAL "DteX100"
*HW_COUNTER_NAME-0 "DteX100"
*HW_COUNTER_NAME-1 "None"
*HW_COUNTER_NAME-2 "None"
*HW_COUNTER_PIXEL_SIZE "0.1"
*HW_COUNTER_SELECT_NAME "DteX100"
*HW_GONIOMETER_ID "GON0021"
*HW_GONIOMETER_NAME "Standard"
*HW_GONIOMETER_NAME_INTERNAL "Standard"
*HW_GONIOMETER_RADIUS-0 "90.0"
*HW_GONIOMETER_RADIUS-1 "114.0"
*HW_GONIOMETER_RADIUS-2 "91.5"
*HW_GONIOMETER_RADIUS-3 "150.0"
*HW_GONIOMETER_RADIUS-4 "103.4"
*HW_GONIOMETER_RADIUS-5 "150.0"
*HW_GONIOMETER_RADIUS-6 "46.6"
*HW_GONIOMETER_RADIUS-7 "150.0"
*HW_I_CBO_ID "CBO0020"
*HW_I_CBO_NAME "No_unit"
*HW_I_CBO_NAME_INTERNAL "No_unit"
*HW_I_MONOCHRO_NAME_INTERNAL "Manual"
*HW_I_OPT_ID-1 "CBO0020"
*HW_I_PRIMARY_NAME_INTERNAL "No_unit"
*HW_I_SLIT_NAME_INTERNAL "Manual"
*HW_R_ATTENUATER_AUTOMODE "0"
*HW_R_ATTENUATER_ID "ATN0020"
*HW_R_ATTENUATER_NAME "No_unit"
*HW_R_ATTENUATOR_NAME_INTERNAL "No_unit"
*HW_R_OPT_ID-1 "RCR0023"
*HW_R_OPT_ID-4 "ATN0020"
*HW_R_ROD_ID "RCR0023"
*HW_R_ROD_NAME "No_unit"
*HW_R_ROD_NAME_INTERNAL "No_unit"
*HW_R_RPS_NAME_INTERNAL "Manual"
*HW_R_RS_NAME_INTERNAL "Manual"
*HW_R_SS_NAME_INTERNAL "Manual"
*HW_SAMPLE_HOLDER_NAME_INTERNAL "None"
*HW_SAMPLE_NAME "None"
*HW_SAMPLE_NAME_INTERNAL "None"
*HW_SAMPLE_PLATE_NAME "None"
*HW_SAMPLE_PLATE_NAME_INTERNAL "None"
*HW_SAMPLE_SPACER_NAME "None"
*HW_SAMPLE_SPACER_NAME_INTERNAL "None"
*HW_USERINFO_CATALOG_NO ""
*HW_USERINFO_INSTRUMENT_ID ""
*HW_USERINFO_INSTRUMENT_NAME ""
*HW_USERINFO_INSTRUMENT_NO ""
*HW_USERINFO_MODEL ""
*HW_USERINFO_ORDER_NO ""
*HW_USERINFO_SERIAL_NO ""
*HW_USERINFO_VERIFY_INSTRUMENT_ID "00-07-fe-03-00-df"
*HW_VER_RCD_COUNTER_UNIT "N/A"
*HW_VER_RCD_CPU "10.0.1"
*HW_VER_RCD_FPGA "3.0.1"
*HW_VER_RCD_GONIO_UNIT "0.0.0"
*HW_VER_RCD_INCIDENT_UNIT "0.0.0"
*HW_VER_RCD_RECEIVING_UNIT "0.0.0"
*HW_VER_RCD_TYPE "RINCII"
*HW_VER_XGC_CPU "10.0.1"
*HW_VER_XGC_CW "5.0.0"
*HW_VER_XGC_HV "5.0.0"
*HW_VER_XGC_RS1 "5.0.0"
*HW_VER_XGC_RS2 "N/A"
*HW_VER_XGC_RT "N/A"
*HW_VER_XGC_TYPE "RINCII"
*HW_XG_CURRENT_UNIT "mA"
*HW_XG_FOCUS "0.4mm x 8mm"
*HW_XG_FOCUS_TYPE "Fine"
*HW_XG_TARGET_ATOMIC_NUMBER "29"
*HW_XG_TARGET_NAME "Cu"
*HW_XG_TYPE "Hermetic"
*HW_XG_VOLTAGE_UNIT "kV"
*HW_XG_WAVE_LENGTH_ALPHA1 "1.540593"
*HW_XG_WAVE_LENGTH_ALPHA2 "1.544414"
*HW_XG_WAVE_LENGTH_BETA "1.392246"
*HW_XG_WAVE_LENGTH_UNIT "Angstrom"
*MEAS_COND_AXIS_NAME_INTERNAL-0 "TwoThetaTheta"
*MEAS_COND_AXIS_NAME_INTERNAL-1 "IncidentSollerSlit"
*MEAS_COND_AXIS_NAME_INTERNAL-10 "Changer"
*MEAS_COND_AXIS_NAME_INTERNAL-11 "ReceivingSlitBox1"
*MEAS_COND_AXIS_NAME_INTERNAL-12 "ReceivingSlitBox1"
*MEAS_COND_AXIS_NAME_INTERNAL-13 "ReceivingSlitBox1"
*MEAS_COND_AXIS_NAME_INTERNAL-14 "Filter"
*MEAS_COND_AXIS_NAME_INTERNAL-15 "ReceivingSollerSlit"
*MEAS_COND_AXIS_NAME_INTERNAL-16 "ReceivingSlitBox2"
*MEAS_COND_AXIS_NAME_INTERNAL-17 "ReceivingSlitBox2"
*MEAS_COND_AXIS_NAME_INTERNAL-18 "ReceivingSlitBox2"
*MEAS_COND_AXIS_NAME_INTERNAL-19 "PHA"
*MEAS_COND_AXIS_NAME_INTERNAL-2 "IncidentSlitBox"
*MEAS_COND_AXIS_NAME_INTERNAL-20 "RS3"
*MEAS_COND_AXIS_NAME_INTERNAL-21 "Target_TargetTime"
*MEAS_COND_AXIS_NAME_INTERNAL-22 "Target_XrayOnTime"
*MEAS_COND_AXIS_NAME_INTERNAL-23 "Target_TMPTime"
*MEAS_COND_AXIS_NAME_INTERNAL-24 "Target_RPTime"
*MEAS_COND_AXIS_NAME_INTERNAL-25 "Target_FilamentTime"
*MEAS_COND_AXIS_NAME_INTERNAL-26 "Target_IG"
*MEAS_COND_AXIS_NAME_INTERNAL-27 "Target_GP"
*MEAS_COND_AXIS_NAME_INTERNAL-28 "Target_FC"
*MEAS_COND_AXIS_NAME_INTERNAL-29 "HVPS_Bias"
*MEAS_COND_AXIS_NAME_INTERNAL-3 "IncidentSlitBox"
*MEAS_COND_AXIS_NAME_INTERNAL-30 "HVPS_HVPSTime"
*MEAS_COND_AXIS_NAME_INTERNAL-31 "HVPS_Type1Time"
*MEAS_COND_AXIS_NAME_INTERNAL-32 "HVPS_Type2Time"
*MEAS_COND_AXIS_NAME_INTERNAL-33 "HVPS_Type3Time"
*MEAS_COND_AXIS_NAME_INTERNAL-34 "CW_IERTime"
*MEAS_COND_AXIS_NAME_INTERNAL-35 "CW_ECTime"
*MEAS_COND_AXIS_NAME_INTERNAL-36 "CW_Flow1"
*MEAS_COND_AXIS_NAME_INTERNAL-37 "CW_Temperature1"
*MEAS_COND_AXIS_NAME_INTERNAL-38 "CW_Pressure1"
*MEAS_COND_AXIS_NAME_INTERNAL-39 "CW_PressureIn"
*MEAS_COND_AXIS_NAME_INTERNAL-4 "IncidentSlitBox"
*MEAS_COND_AXIS_NAME_INTERNAL-40 "CW_PressureOut"
*MEAS_COND_AXIS_NAME_INTERNAL-41 "CW_Flow2"
*MEAS_COND_AXIS_NAME_INTERNAL-42 "CW_Temperature2"
*MEAS_COND_AXIS_NAME_INTERNAL-43 "CW_Pressure2"
*MEAS_COND_AXIS_NAME_INTERNAL-44 "RE_EnclosureTemp"
*MEAS_COND_AXIS_NAME_INTERNAL-45 "RE_EnclosureHummidity"
*MEAS_COND_AXIS_NAME_INTERNAL-46 "RE_CabinetTemp"
*MEAS_COND_AXIS_NAME_INTERNAL-47 "RE_RPTemp"
*MEAS_COND_AXIS_NAME_INTERNAL-48 "RE_ShutterAXrayOnTime"
*MEAS_COND_AXIS_NAME_INTERNAL-49 "RE_ShutterATimes"
*MEAS_COND_AXIS_NAME_INTERNAL-5 "IncidentAxdSlit"
*MEAS_COND_AXIS_NAME_INTERNAL-50 "RE_ShutterAOpenCloseTime"
*MEAS_COND_AXIS_NAME_INTERNAL-51 "RE_ShutterACloseOpenTime"
*MEAS_COND_AXIS_NAME_INTERNAL-52 "RE_ShutterBXrayOnTime"
*MEAS_COND_AXIS_NAME_INTERNAL-53 "RE_ShutterBTimes"
*MEAS_COND_AXIS_NAME_INTERNAL-54 "RE_ShutterBOpenCloseTime"
*MEAS_COND_AXIS_NAME_INTERNAL-55 "RE_ShutterBCloseOpenTime"
*MEAS_COND_AXIS_NAME_INTERNAL-56 "RE_XrayWarningRamp"
*MEAS_COND_AXIS_NAME_INTERNAL-57 "RE_ShutterAInstallation"
*MEAS_COND_AXIS_NAME_INTERNAL-58 "RE_ShutterARamp"
*MEAS_COND_AXIS_NAME_INTERNAL-59 "RE_ShutterBInstallation"
*MEAS_COND_AXIS_NAME_INTERNAL-6 "IncidentAxdSlit"
*MEAS_COND_AXIS_NAME_INTERNAL-60 "RE_ShutterBRamp"
*MEAS_COND_AXIS_NAME_INTERNAL-61 "RE_ExtShutterCLS"
*MEAS_COND_AXIS_NAME_INTERNAL-62 "RE_ExtXrayOFF"
*MEAS_COND_AXIS_NAME_INTERNAL-63 "RE_ExtSafetyCircuit"
*MEAS_COND_AXIS_NAME_INTERNAL-64 "Version_CPU"
*MEAS_COND_AXIS_NAME_INTERNAL-65 "Version_RS1"
*MEAS_COND_AXIS_NAME_INTERNAL-66 "Version_RS2"
*MEAS_COND_AXIS_NAME_INTERNAL-67 "Version_HV"
*MEAS_COND_AXIS_NAME_INTERNAL-68 "Version_CW"
*MEAS_COND_AXIS_NAME_INTERNAL-69 "Version_RT"
*MEAS_COND_AXIS_NAME_INTERNAL-7 "IncidentAxdSlit"
*MEAS_COND_AXIS_NAME_INTERNAL-70 "IncidentPrimary"
*MEAS_COND_AXIS_NAME_INTERNAL-71 "IncidentMonochromator"
*MEAS_COND_AXIS_NAME_INTERNAL-72 "ReceivingOptics"
*MEAS_COND_AXIS_NAME_INTERNAL-73 "CounterMonochromatorKind"
*MEAS_COND_AXIS_NAME_INTERNAL-8 "Filter"
*MEAS_COND_AXIS_NAME_INTERNAL-9 "Beta"
*MEAS_COND_AXIS_NAME-0 "TwoThetaTheta"
*MEAS_COND_AXIS_NAME-1 "IncidentSollerSlit"
*MEAS_COND_AXIS_NAME-10 "Changer"
*MEAS_COND_AXIS_NAME-11 "ReceivingSlitBox1"
*MEAS_COND_AXIS_NAME-12 "ReceivingSlitBox1-_Axis"
*MEAS_COND_AXIS_NAME-13 "SlitSS"
*MEAS_COND_AXIS_NAME-14 "Filter"
*MEAS_COND_AXIS_NAME-15 "ReceivingSollerSlit"
*MEAS_COND_AXIS_NAME-16 "ReceivingSlitBox2"
*MEAS_COND_AXIS_NAME-17 "ReceivingSlitBox2-_Axis"
*MEAS_COND_AXIS_NAME-18 "SlitRS"
*MEAS_COND_AXIS_NAME-19 "PHA"
*MEAS_COND_AXIS_NAME-2 "IncidentSlitBox"
*MEAS_COND_AXIS_NAME-20 "RS3"
*MEAS_COND_AXIS_NAME-21 "Target_TargetTime"
*MEAS_COND_AXIS_NAME-22 "Target_XrayOnTime"
*MEAS_COND_AXIS_NAME-23 "Target_TMPTime"
*MEAS_COND_AXIS_NAME-24 "Target_RPTime"
*MEAS_COND_AXIS_NAME-25 "Target_FilamentTime"
*MEAS_COND_AXIS_NAME-26 "Target_IG"
*MEAS_COND_AXIS_NAME-27 "Target_GP"
*MEAS_COND_AXIS_NAME-28 "Target_FC"
*MEAS_COND_AXIS_NAME-29 "HVPS_Bias"
*MEAS_COND_AXIS_NAME-3 "IncidentSlitBox-_Axis"
*MEAS_COND_AXIS_NAME-30 "HVPS_HVPSTime"
*MEAS_COND_AXIS_NAME-31 "HVPS_Type1Time"
*MEAS_COND_AXIS_NAME-32 "HVPS_Type2Time"
*MEAS_COND_AXIS_NAME-33 "HVPS_Type3Time"
*MEAS_COND_AXIS_NAME-34 "CW_IERTime"
*MEAS_COND_AXIS_NAME-35 "CW_ECTime"
*MEAS_COND_AXIS_NAME-36 "CW_Flow1"
*MEAS_COND_AXIS_NAME-37 "CW_Temperature1"
*MEAS_COND_AXIS_NAME-38 "CW_Pressure1"
*MEAS_COND_AXIS_NAME-39 "CW_PressureIn"
*MEAS_COND_AXIS_NAME-4 "SlitDS"
*MEAS_COND_AXIS_NAME-40 "CW_PressureOut"
*MEAS_COND_AXIS_NAME-41 "CW_Flow2"
*MEAS_COND_AXIS_NAME-42 "CW_Temperature2"
*MEAS_COND_AXIS_NAME-43 "CW_Pressure2"
*MEAS_COND_AXIS_NAME-44 "RE_EnclosureTemp"
*MEAS_COND_AXIS_NAME-45 "RE_EnclosureHummidity"
*MEAS_COND_AXIS_NAME-46 "RE_CabinetTemp"
*MEAS_COND_AXIS_NAME-47 "RE_RPTemp"
*MEAS_COND_AXIS_NAME-48 "RE_ShutterAXrayOnTime"
*MEAS_COND_AXIS_NAME-49 "RE_ShutterATimes"
*MEAS_COND_AXIS_NAME-5 "IncidentAxdSlit"
*MEAS_COND_AXIS_NAME-50 "RE_ShutterAOpenCloseTime"
*MEAS_COND_AXIS_NAME-51 "RE_ShutterACloseOpenTime"
*MEAS_COND_AXIS_NAME-52 "RE_ShutterBXrayOnTime"
*MEAS_COND_AXIS_NAME-53 "RE_ShutterBTimes"
*MEAS_COND_AXIS_NAME-54 "RE_ShutterBOpenCloseTime"
*MEAS_COND_AXIS_NAME-55 "RE_ShutterBCloseOpenTime"
*MEAS_COND_AXIS_NAME-56 "RE_XrayWarningRamp"
*MEAS_COND_AXIS_NAME-57 "RE_ShutterAInstallation"
*MEAS_COND_AXIS_NAME-58 "RE_ShutterARamp"
*MEAS_COND_AXIS_NAME-59 "RE_ShutterBInstallation"
*MEAS_COND_AXIS_NAME-6 "LLS"
*MEAS_COND_AXIS_NAME-60 "RE_ShutterBRamp"
*MEAS_COND_AXIS_NAME-61 "RE_ExtShutterCLS"
*MEAS_COND_AXIS_NAME-62 "RE_ExtXrayOFF"
*MEAS_COND_AXIS_NAME-63 "RE_ExtSafetyCircuit"
*MEAS_COND_AXIS_NAME-64 "Version_CPU"
*MEAS_COND_AXIS_NAME-65 "Version_RS1"
*MEAS_COND_AXIS_NAME-66 "Version_RS2"
*MEAS_COND_AXIS_NAME-67 "Version_HV"
*MEAS_COND_AXIS_NAME-68 "Version_CW"
*MEAS_COND_AXIS_NAME-69 "Version_RT"
*MEAS_COND_AXIS_NAME-7 "DHLSlit"
*MEAS_COND_AXIS_NAME-70 "IncidentPrimary"
*MEAS_COND_AXIS_NAME-71 "IncidentMonochromator"
*MEAS_COND_AXIS_NAME-72 "ReceivingOptics"
*MEAS_COND_AXIS_NAME-73 "CounterMonochromatorKind"
*MEAS_COND_AXIS_NAME-8 "Filter"
*MEAS_COND_AXIS_NAME-9 "Beta"
*MEAS_COND_AXIS_OFFSET-0 "0"
*MEAS_COND_AXIS_OFFSET-1 "0"
*MEAS_COND_AXIS_OFFSET-10 "0"
*MEAS_COND_AXIS_OFFSET-11 "0"
*MEAS_COND_AXIS_OFFSET-12 "0"
*MEAS_COND_AXIS_OFFSET-13 "0"
*MEAS_COND_AXIS_OFFSET-14 "0"
*MEAS_COND_AXIS_OFFSET-15 "0"
*MEAS_COND_AXIS_OFFSET-16 "0"
*MEAS_COND_AXIS_OFFSET-17 "0"
*MEAS_COND_AXIS_OFFSET-18 "0"
*MEAS_COND_AXIS_OFFSET-19 "0"
*MEAS_COND_AXIS_OFFSET-2 "0"
*MEAS_COND_AXIS_OFFSET-20 "0"
*MEAS_COND_AXIS_OFFSET-21 "0"
*MEAS_COND_AXIS_OFFSET-22 "0"
*MEAS_COND_AXIS_OFFSET-23 "0"
*MEAS_COND_AXIS_OFFSET-24 "0"
*MEAS_COND_AXIS_OFFSET-25 "0"
*MEAS_COND_AXIS_OFFSET-26 "0"
*MEAS_COND_AXIS_OFFSET-27 "0"
*MEAS_COND_AXIS_OFFSET-28 "0"
*MEAS_COND_AXIS_OFFSET-29 "0"
*MEAS_COND_AXIS_OFFSET-3 "0"
*MEAS_COND_AXIS_OFFSET-30 "0"
*MEAS_COND_AXIS_OFFSET-31 "0"
*MEAS_COND_AXIS_OFFSET-32 "0"
*MEAS_COND_AXIS_OFFSET-33 "0"
*MEAS_COND_AXIS_OFFSET-34 "0"
*MEAS_COND_AXIS_OFFSET-35 "0"
*MEAS_COND_AXIS_OFFSET-36 "0"
*MEAS_COND_AXIS_OFFSET-37 "0"
*MEAS_COND_AXIS_OFFSET-38 "0"
*MEAS_COND_AXIS_OFFSET-39 "0"
*MEAS_COND_AXIS_OFFSET-4 "0"
*MEAS_COND_AXIS_OFFSET-40 "0"
*MEAS_COND_AXIS_OFFSET-41 "0"
*MEAS_COND_AXIS_OFFSET-42 "0"
*MEAS_COND_AXIS_OFFSET-43 "0"
*MEAS_COND_AXIS_OFFSET-44 "0"
*MEAS_COND_AXIS_OFFSET-45 "0"
*MEAS_COND_AXIS_OFFSET-46 "0"
*MEAS_COND_AXIS_OFFSET-47 "0"
*MEAS_COND_AXIS_OFFSET-48 "0"
*MEAS_COND_AXIS_OFFSET-49 "0"
*MEAS_COND_AXIS_OFFSET-5 "0"
*MEAS_COND_AXIS_OFFSET-50 "0"
*MEAS_COND_AXIS_OFFSET-51 "0"
*MEAS_COND_AXIS_OFFSET-52 "0"
*MEAS_COND_AXIS_OFFSET-53 "0"
*MEAS_COND_AXIS_OFFSET-54 "0"
*MEAS_COND_AXIS_OFFSET-55 "0"
*MEAS_COND_AXIS_OFFSET-56 "0"
*MEAS_COND_AXIS_OFFSET-57 "0"
*MEAS_COND_AXIS_OFFSET-58 "0"
*MEAS_COND_AXIS_OFFSET-59 "0"
*MEAS_COND_AXIS_OFFSET-6 "0"
*MEAS_COND_AXIS_OFFSET-60 "0"
*MEAS_COND_AXIS_OFFSET-61 "0"
*MEAS_COND_AXIS_OFFSET-62 "0"
*MEAS_COND_AXIS_OFFSET-63 "0"
*MEAS_COND_AXIS_OFFSET-64 "0"
*MEAS_COND_AXIS_OFFSET-65 "0"
*MEAS_COND_AXIS_OFFSET-66 "0"
*MEAS_COND_AXIS_OFFSET-67 "0"
*MEAS_COND_AXIS_OFFSET-68 "0"
*MEAS_COND_AXIS_OFFSET-69 "0"
*MEAS_COND_AXIS_OFFSET-7 "0"
*MEAS_COND_AXIS_OFFSET-70 "0"
*MEAS_COND_AXIS_OFFSET-71 "0"
*MEAS_COND_AXIS_OFFSET-72 "0"
*MEAS_COND_AXIS_OFFSET-73 "0"
*MEAS_COND_AXIS_OFFSET-8 "0"
*MEAS_COND_AXIS_OFFSET-9 "0"
*MEAS_COND_AXIS_POSITION-0 "12.0000"
*MEAS_COND_AXIS_POSITION-1 "Soller_slit_2.5deg"
*MEAS_COND_AXIS_POSITION-10 "6"
*MEAS_COND_AXIS_POSITION-11 "8.0mm"
*MEAS_COND_AXIS_POSITION-12 "8.0mm"
*MEAS_COND_AXIS_POSITION-13 "8.0mm"
*MEAS_COND_AXIS_POSITION-14 "K_beta_x1.5"
*MEAS_COND_AXIS_POSITION-15 "Soller_slit_2.5deg"
*MEAS_COND_AXIS_POSITION-16 "Open"
*MEAS_COND_AXIS_POSITION-17 "Open"
*MEAS_COND_AXIS_POSITION-18 "Open"
*MEAS_COND_AXIS_POSITION-19 "43"
*MEAS_COND_AXIS_POSITION-2 "1.25deg"
*MEAS_COND_AXIS_POSITION-20 "Open"
*MEAS_COND_AXIS_POSITION-3 "1.25deg"
*MEAS_COND_AXIS_POSITION-4 "1.25deg"
*MEAS_COND_AXIS_POSITION-5 "10mm"
*MEAS_COND_AXIS_POSITION-6 "10mm"
*MEAS_COND_AXIS_POSITION-7 "10mm"
*MEAS_COND_AXIS_POSITION-70 "No_unit"
*MEAS_COND_AXIS_POSITION-71 "Manual"
*MEAS_COND_AXIS_POSITION-72 "No_unit"
*MEAS_COND_AXIS_POSITION-73 "None"
*MEAS_COND_AXIS_POSITION-8 "None"
*MEAS_COND_AXIS_RESOLUTION-0 "0.0025"
*MEAS_COND_AXIS_RESOLUTION-1 ""
*MEAS_COND_AXIS_RESOLUTION-10 "1"
*MEAS_COND_AXIS_RESOLUTION-11 ""
*MEAS_COND_AXIS_RESOLUTION-12 ""
*MEAS_COND_AXIS_RESOLUTION-13 ""
*MEAS_COND_AXIS_RESOLUTION-14 ""
*MEAS_COND_AXIS_RESOLUTION-15 ""
*MEAS_COND_AXIS_RESOLUTION-16 ""
*MEAS_COND_AXIS_RESOLUTION-17 ""
*MEAS_COND_AXIS_RESOLUTION-18 ""
*MEAS_COND_AXIS_RESOLUTION-19 "1"
*MEAS_COND_AXIS_RESOLUTION-2 ""
*MEAS_COND_AXIS_RESOLUTION-20 "0.1"
*MEAS_COND_AXIS_RESOLUTION-21 "0.01"
*MEAS_COND_AXIS_RESOLUTION-22 "0.010000"
*MEAS_COND_AXIS_RESOLUTION-23 "0.01"
*MEAS_COND_AXIS_RESOLUTION-24 "0.01"
*MEAS_COND_AXIS_RESOLUTION-25 "0.01"
*MEAS_COND_AXIS_RESOLUTION-26 "1"
*MEAS_COND_AXIS_RESOLUTION-27 "1"
*MEAS_COND_AXIS_RESOLUTION-28 "0.01"
*MEAS_COND_AXIS_RESOLUTION-29 "1"
*MEAS_COND_AXIS_RESOLUTION-3 ""
*MEAS_COND_AXIS_RESOLUTION-30 "0.01"
*MEAS_COND_AXIS_RESOLUTION-31 "0.01"
*MEAS_COND_AXIS_RESOLUTION-32 "0.01"
*MEAS_COND_AXIS_RESOLUTION-33 "0.01"
*MEAS_COND_AXIS_RESOLUTION-34 "0.010000"
*MEAS_COND_AXIS_RESOLUTION-35 "1"
*MEAS_COND_AXIS_RESOLUTION-36 "0.100000"
*MEAS_COND_AXIS_RESOLUTION-37 "1.000000"
*MEAS_COND_AXIS_RESOLUTION-38 "0.010000"
*MEAS_COND_AXIS_RESOLUTION-39 "0.01"
*MEAS_COND_AXIS_RESOLUTION-4 ""
*MEAS_COND_AXIS_RESOLUTION-40 "0.01"
*MEAS_COND_AXIS_RESOLUTION-41 "0.1"
*MEAS_COND_AXIS_RESOLUTION-42 "1"
*MEAS_COND_AXIS_RESOLUTION-43 "0.01"
*MEAS_COND_AXIS_RESOLUTION-44 "1.000000"
*MEAS_COND_AXIS_RESOLUTION-45 "1"
*MEAS_COND_AXIS_RESOLUTION-46 "1.000000"
*MEAS_COND_AXIS_RESOLUTION-47 "1"
*MEAS_COND_AXIS_RESOLUTION-48 "0.01"
*MEAS_COND_AXIS_RESOLUTION-49 "1"
*MEAS_COND_AXIS_RESOLUTION-5 ""
*MEAS_COND_AXIS_RESOLUTION-50 "1"
*MEAS_COND_AXIS_RESOLUTION-51 "1"
*MEAS_COND_AXIS_RESOLUTION-52 "0.01"
*MEAS_COND_AXIS_RESOLUTION-53 "1.000000"
*MEAS_COND_AXIS_RESOLUTION-54 "1.000000"
*MEAS_COND_AXIS_RESOLUTION-55 "1.000000"
*MEAS_COND_AXIS_RESOLUTION-56 "-"
*MEAS_COND_AXIS_RESOLUTION-57 "-"
*MEAS_COND_AXIS_RESOLUTION-58 "-"
*MEAS_COND_AXIS_RESOLUTION-59 "1.000000"
*MEAS_COND_AXIS_RESOLUTION-6 ""
*MEAS_COND_AXIS_RESOLUTION-60 "-"
*MEAS_COND_AXIS_RESOLUTION-61 "-"
*MEAS_COND_AXIS_RESOLUTION-62 "-"
*MEAS_COND_AXIS_RESOLUTION-63 "1.000000"
*MEAS_COND_AXIS_RESOLUTION-64 "1.000000"
*MEAS_COND_AXIS_RESOLUTION-65 "1.000000"
*MEAS_COND_AXIS_RESOLUTION-66 "1.000000"
*MEAS_COND_AXIS_RESOLUTION-67 "1.000000"
*MEAS_COND_AXIS_RESOLUTION-68 "1.000000"
*MEAS_COND_AXIS_RESOLUTION-69 "1.000000"
*MEAS_COND_AXIS_RESOLUTION-7 ""
*MEAS_COND_AXIS_RESOLUTION-8 ""
*MEAS_COND_AXIS_RESOLUTION-9 "0.9"
*MEAS_COND_AXIS_SPEED_RESOLUTION-9 "0.1"
*MEAS_COND_AXIS_SPEED_UNIT-9 "rpm"
*MEAS_COND_AXIS_SPEED-9 "80"
*MEAS_COND_AXIS_STATE-0 "Scan"
*MEAS_COND_AXIS_STATE-1 "Fixed"
*MEAS_COND_AXIS_STATE-10 "Fixed"
*MEAS_COND_AXIS_STATE-11 "Fixed"
*MEAS_COND_AXIS_STATE-12 "Fixed"
*MEAS_COND_AXIS_STATE-13 "Fixed"
*MEAS_COND_AXIS_STATE-14 "Fixed"
*MEAS_COND_AXIS_STATE-15 "Fixed"
*MEAS_COND_AXIS_STATE-16 "Fixed"
*MEAS_COND_AXIS_STATE-17 "Fixed"
*MEAS_COND_AXIS_STATE-18 "Fixed"
*MEAS_COND_AXIS_STATE-19 "Fixed"
*MEAS_COND_AXIS_STATE-2 "Fixed"
*MEAS_COND_AXIS_STATE-20 "Fixed"
*MEAS_COND_AXIS_STATE-21 "Fixed"
*MEAS_COND_AXIS_STATE-22 "Fixed"
*MEAS_COND_AXIS_STATE-23 "Fixed"
*MEAS_COND_AXIS_STATE-24 "Fixed"
*MEAS_COND_AXIS_STATE-25 "Fixed"
*MEAS_COND_AXIS_STATE-26 "Fixed"
*MEAS_COND_AXIS_STATE-27 "Fixed"
*MEAS_COND_AXIS_STATE-28 "Fixed"
*MEAS_COND_AXIS_STATE-29 "Fixed"
*MEAS_COND_AXIS_STATE-3 "Fixed"
*MEAS_COND_AXIS_STATE-30 "Fixed"
*MEAS_COND_AXIS_STATE-31 "Fixed"
*MEAS_COND_AXIS_STATE-32 "Fixed"
*MEAS_COND_AXIS_STATE-33 "Fixed"
*MEAS_COND_AXIS_STATE-34 "Fixed"
*MEAS_COND_AXIS_STATE-35 "Fixed"
*MEAS_COND_AXIS_STATE-36 "Fixed"
*MEAS_COND_AXIS_STATE-37 "Fixed"
*MEAS_COND_AXIS_STATE-38 "Fixed"
*MEAS_COND_AXIS_STATE-39 "Fixed"
*MEAS_COND_AXIS_STATE-4 "Fixed"
*MEAS_COND_AXIS_STATE-40 "Fixed"
*MEAS_COND_AXIS_STATE-41 "Fixed"
*MEAS_COND_AXIS_STATE-42 "Fixed"
*MEAS_COND_AXIS_STATE-43 "Fixed"
*MEAS_COND_AXIS_STATE-44 "Fixed"
*MEAS_COND_AXIS_STATE-45 "Fixed"
*MEAS_COND_AXIS_STATE-46 "Fixed"
*MEAS_COND_AXIS_STATE-47 "Fixed"
*MEAS_COND_AXIS_STATE-48 "Fixed"
*MEAS_COND_AXIS_STATE-49 "Fixed"
*MEAS_COND_AXIS_STATE-5 "Fixed"
*MEAS_COND_AXIS_STATE-50 "Fixed"
*MEAS_COND_AXIS_STATE-51 "Fixed"
*MEAS_COND_AXIS_STATE-52 "Fixed"
*MEAS_COND_AXIS_STATE-53 "Fixed"
*MEAS_COND_AXIS_STATE-54 "Fixed"
*MEAS_COND_AXIS_STATE-55 "Fixed"
*MEAS_COND_AXIS_STATE-56 "Fixed"
*MEAS_COND_AXIS_STATE-57 "Fixed"
*MEAS_COND_AXIS_STATE-58 "Fixed"
*MEAS_COND_AXIS_STATE-59 "Fixed"
*MEAS_COND_AXIS_STATE-6 "Fixed"
*MEAS_COND_AXIS_STATE-60 "Fixed"
*MEAS_COND_AXIS_STATE-61 "Fixed"
*MEAS_COND_AXIS_STATE-62 "Fixed"
*MEAS_COND_AXIS_STATE-63 "Fixed"
*MEAS_COND_AXIS_STATE-64 "Fixed"
*MEAS_COND_AXIS_STATE-65 "Fixed"
*MEAS_COND_AXIS_STATE-66 "Fixed"
*MEAS_COND_AXIS_STATE-67 "Fixed"
*MEAS_COND_AXIS_STATE-68 "Fixed"
*MEAS_COND_AXIS_STATE-69 "Fixed"
*MEAS_COND_AXIS_STATE-7 "Fixed"
*MEAS_COND_AXIS_STATE-8 "Fixed"
*MEAS_COND_AXIS_STATE-9 "Rotation"
*MEAS_COND_AXIS_UNIT-0 "deg"
*MEAS_COND_AXIS_UNIT-1 ""
*MEAS_COND_AXIS_UNIT-10 ""
*MEAS_COND_AXIS_UNIT-11 ""
*MEAS_COND_AXIS_UNIT-12 ""
*MEAS_COND_AXIS_UNIT-13 ""
*MEAS_COND_AXIS_UNIT-14 ""
*MEAS_COND_AXIS_UNIT-15 ""
*MEAS_COND_AXIS_UNIT-16 ""
*MEAS_COND_AXIS_UNIT-17 ""
*MEAS_COND_AXIS_UNIT-18 ""
*MEAS_COND_AXIS_UNIT-19 "div"
*MEAS_COND_AXIS_UNIT-2 ""
*MEAS_COND_AXIS_UNIT-20 ""
*MEAS_COND_AXIS_UNIT-21 "H"
*MEAS_COND_AXIS_UNIT-22 "H"
*MEAS_COND_AXIS_UNIT-23 "H"
*MEAS_COND_AXIS_UNIT-24 "H"
*MEAS_COND_AXIS_UNIT-25 "H"
*MEAS_COND_AXIS_UNIT-26 "mV"
*MEAS_COND_AXIS_UNIT-27 "V"
*MEAS_COND_AXIS_UNIT-28 "V"
*MEAS_COND_AXIS_UNIT-29 "V"
*MEAS_COND_AXIS_UNIT-3 ""
*MEAS_COND_AXIS_UNIT-30 "H"
*MEAS_COND_AXIS_UNIT-31 "H"
*MEAS_COND_AXIS_UNIT-32 "H"
*MEAS_COND_AXIS_UNIT-33 "H"
*MEAS_COND_AXIS_UNIT-34 "H"
*MEAS_COND_AXIS_UNIT-35 "uS/m"
*MEAS_COND_AXIS_UNIT-36 "L/min"
*MEAS_COND_AXIS_UNIT-37 "degree"
*MEAS_COND_AXIS_UNIT-38 "MPa"
*MEAS_COND_AXIS_UNIT-39 "MPa"
*MEAS_COND_AXIS_UNIT-4 ""
*MEAS_COND_AXIS_UNIT-40 "MPa"
*MEAS_COND_AXIS_UNIT-41 "L/min"
*MEAS_COND_AXIS_UNIT-42 "C"
*MEAS_COND_AXIS_UNIT-43 "MPa"
*MEAS_COND_AXIS_UNIT-44 "degree"
*MEAS_COND_AXIS_UNIT-45 "percent"
*MEAS_COND_AXIS_UNIT-46 "degree"
*MEAS_COND_AXIS_UNIT-47 "C"
*MEAS_COND_AXIS_UNIT-48 "H"
*MEAS_COND_AXIS_UNIT-49 "time"
*MEAS_COND_AXIS_UNIT-5 ""
*MEAS_COND_AXIS_UNIT-50 "msec"
*MEAS_COND_AXIS_UNIT-51 "msec"
*MEAS_COND_AXIS_UNIT-52 "H"
*MEAS_COND_AXIS_UNIT-53 "times"
*MEAS_COND_AXIS_UNIT-54 "msec"
*MEAS_COND_AXIS_UNIT-55 "msec"
*MEAS_COND_AXIS_UNIT-56 "-"
*MEAS_COND_AXIS_UNIT-57 "-"
*MEAS_COND_AXIS_UNIT-58 "-"
*MEAS_COND_AXIS_UNIT-59 ""
*MEAS_COND_AXIS_UNIT-6 ""
*MEAS_COND_AXIS_UNIT-60 "-"
*MEAS_COND_AXIS_UNIT-61 "-"
*MEAS_COND_AXIS_UNIT-62 "-"
*MEAS_COND_AXIS_UNIT-63 ""
*MEAS_COND_AXIS_UNIT-64 ""
*MEAS_COND_AXIS_UNIT-65 ""
*MEAS_COND_AXIS_UNIT-66 ""
*MEAS_COND_AXIS_UNIT-67 ""
*MEAS_COND_AXIS_UNIT-68 ""
*MEAS_COND_AXIS_UNIT-69 ""
*MEAS_COND_AXIS_UNIT-7 ""
*MEAS_COND_AXIS_UNIT-70 ""
*MEAS_COND_AXIS_UNIT-71 ""
*MEAS_COND_AXIS_UNIT-72 ""
*MEAS_COND_AXIS_UNIT-73 ""
*MEAS_COND_AXIS_UNIT-8 ""
*MEAS_COND_AXIS_UNIT-9 "deg"
*MEAS_COND_COUNTER_CENTER_X "0.5"
*MEAS_COND_COUNTER_CENTER_Y "67.34"
*MEAS_COND_COUNTER_COUNTMODE "Differential"
*MEAS_COND_COUNTER_DEADTIMECORRECTION "Enabled"
*MEAS_COND_COUNTER_DISTANCE "150"
*MEAS_COND_COUNTER_ENERGYMODE "XRFReduction"
*MEAS_COND_COUNTER_PHA_UNIT "div"
*MEAS_COND_COUNTER_PHABASE "43"
*MEAS_COND_COUNTER_PHAWINDOW "21"
*MEAS_COND_COUNTER_PITCH_X "20"
*MEAS_COND_COUNTER_PITCH_Y "0.1"
*MEAS_COND_COUNTER_PITCHUNIT "mm"
*MEAS_COND_COUNTER_VALIDWIDTH_X "1"
*MEAS_COND_COUNTER_VALIDWIDTH_Y "200"
*MEAS_COND_XG_CURRENT "15"
*MEAS_COND_XG_VOLTAGE "40"
*MEAS_COND_XG_WAVE_TYPE "Ka"
*MEAS_DATA_COUNT "3751"
*MEAS_SCAN_AXIS_X "TwoThetaTheta"
*MEAS_SCAN_AXIS_X_INTERNAL "TwoThetaTheta"
*MEAS_SCAN_END_TIME "06/03/2024 13:31:03"
*MEAS_SCAN_MODE "CONTINUOUS"
*MEAS_SCAN_MODE_INTERNAL "TDI_1D"
*MEAS_SCAN_RESOLUTION_X "0.0025"
*MEAS_SCAN_SPEED "10.0000"
*MEAS_SCAN_SPEED_UNIT "deg/min"
*MEAS_SCAN_START "5.0000"
*MEAS_SCAN_START_TIME "06/03/2024 13:22:53"
*MEAS_SCAN_STEP "0.0200"
*MEAS_SCAN_STOP "80.0000"
*MEAS_SCAN_UNEQUALY_SPACED "False"
*MEAS_SCAN_UNIT_X "deg"
*MEAS_SCAN_UNIT_Y "cps"
#Intensity_unit=cps
#Attenuator_coefficient=1.0000
5.0000 1991.6675
5.0200 1991.6675
5.0400 1991.6675
5.0600 1942.4700
5.0800 1835.6925
5.1000 2054.6275
5.1200 1847.9975
5.1400 2035.4350
5.1600 1932.3750
5.1800 1884.3025
5.2000 1921.7675
5.2200 1841.3850
5.2400 1942.1650
5.2600 1992.6750
5.2800 2047.7225
5.3000 1983.5625
5.3200 1884.5850
5.3400 1853.0200
5.3600 1856.3700
5.3800 1907.9825
5.4000 1790.4275
5.4200 1830.8625
5.4400 1865.5800
5.4600 1794.6725
5.4800 1828.3050
5.5000 2007.2250
5.5200 1907.8775
5.5400 1813.5775
5.5600 1951.6950
5.5800 2012.6125
5.6000 1915.9650
5.6200 2025.6875
5.6400 1853.6125
5.6600 1773.2175
5.6800 1773.8000
5.7000 1832.1125
5.7200 1917.8775
5.7400 1842.8425
5.7600 1978.5725
5.7800 1932.1500
5.8000 2057.1475
5.8200 2060.1025
5.8400 1953.5500
5.8600 1916.1225
5.8800 2061.3025
5.9000 2013.0475
5.9200 1920.8575
5.9400 1936.2475
5.9600 1832.1600
5.9800 1872.6525
6.0000 1928.5800
6.0200 1977.4800
6.0400 2043.8625
6.0600 1854.9025
6.0800 2021.4175
6.1000 1983.2525
6.1200 1827.1650
6.1400 1674.0950
6.1600 1982.1675
6.1800 1985.0350
6.2000 1896.4150
6.2200 1899.4650
6.2400 1987.0125
6.2600 2075.5325
6.2800 2009.4975
6.3000 1958.2375
6.3200 1916.8600
6.3400 2069.5250
6.3600 2024.6600
6.3800 2194.9650
6.4000 1942.2950
6.4200 2012.6400
6.4400 2103.4000
6.4600 1936.9175
6.4800 1953.5850
6.5000 1988.1700
6.5200 2084.5850
6.5400 2098.0425
6.5600 1888.6275
6.5800 1820.2500
6.6000 1854.8250
6.6200 1947.6600
6.6400 1987.4675
6.6600 1952.4075
6.6800 1937.9700
6.7000 1772.0900
6.7200 1904.8050
6.7400 1960.0775
6.7600 1928.6550
6.7800 2092.8150
6.8000 1978.5750
6.8200 1995.2425
6.8400 2019.0550
6.8600 1999.3825
6.8800 1777.9750
6.9000 1808.3250
6.9200 1993.4525
6.9400 1982.1550
6.9600 1938.0725
6.9800 2043.4175
7.0000 2123.8400
7.0200 2033.3825
7.0400 1941.6675
7.0600 1904.2675
7.0800 1798.7125
7.1000 1882.8550
7.1200 1856.1750
7.1400 2189.9925
7.1600 2063.2250
7.1800 1958.3325
7.2000 1986.7500
7.2200 2061.4850
7.2400 1953.5500
7.2600 1959.5725
7.2800 1933.3325
7.3000 1959.9150
7.3200 2035.3075
7.3400 1971.2450
7.3600 2039.3825
7.3800 1968.1650
7.4000 1887.1225
7.4200 1994.9650
7.4400 1904.5250
7.4600 2013.3375
7.4800 2107.3600
7.5000 2031.0900
7.5200 1977.5700
7.5400 1932.0425
7.5600 1965.3725
7.5800 2003.9775
7.6000 2032.4225
7.6200 1961.3975
7.6400 1955.7100
7.6600 1990.7900
7.6800 1956.5600
7.7000 2082.0075
7.7200 2094.3250
7.7400 2001.4225
7.7600 1877.9775
7.7800 2028.7625
7.8000 2152.8550
7.8200 1966.2750
7.8400 1964.7175
7.8600 2086.8175
7.8800 2075.6275
7.9000 1964.1975
7.9200 1900.3575
7.9400 1947.2300
7.9600 2012.1500
7.9800 2077.4100
8.0000 2111.8775
8.0200 1944.1600
8.0400 1880.8225
8.0600 1996.0500
8.0800 2101.4250
8.1000 2062.9200
8.1200 2021.8400
8.1400 2034.7775
8.1600 1982.5175
8.1800 1867.8575
8.2000 1823.7950
8.2200 1914.2275
8.2400 2028.1900
8.2600 2006.6200
8.2800 1955.5025
8.3000 1802.1425
8.3200 1876.7075
8.3400 1869.6825
8.3600 1820.0775
8.3800 1848.6625
8.4000 1915.1400
8.4200 1951.8650
8.4400 1983.1775
8.4600 1968.6575
8.4800 2028.1125
8.5000 1973.3075
8.5200 1966.6675
8.5400 1995.3775
8.5600 2089.7750
8.5800 2043.6300
8.6000 2141.5825
8.6200 2036.0325
8.6400 1808.7825
8.6600 2036.6350
8.6800 2004.9375
8.7000 1960.0075
8.7200 2030.1925
8.7400 2266.6350
8.7600 2143.2975
8.7800 1934.9900
8.8000 1991.6975
8.8200 1943.2775
8.8400 2024.9650
8.8600 2043.4150
8.8800 1970.0900
8.9000 1910.0525
8.9200 1858.5675
8.9400 1774.8225
8.9600 1869.6625
8.9800 1999.7800
9.0000 2094.5875
9.0200 2168.9675
9.0400 1998.5050
9.0600 1948.5175
9.0800 1909.9675
9.1000 1955.8175
9.1200 2100.3775
9.1400 2059.3600
9.1600 2145.5500
9.1800 2042.1125
9.2000 2004.1550
9.2200 2147.6425
9.2400 2177.0675
9.2600 1914.7825
9.2800 1930.3950
9.3000 1909.0575
9.3200 2029.5100
9.3400 2084.9350
9.3600 2038.8525
9.3800 1840.6350
9.4000 1965.5975
9.4200 2068.2600
9.4400 2114.7600
9.4600 2249.9875
9.4800 2094.0650
9.5000 2023.8375
9.5200 2016.5175
9.5400 2136.2475
9.5600 2010.1675
9.5800 1901.7300
9.6000 2051.2000
9.6200 2184.3300
9.6400 2126.0525
9.6600 2152.6125
9.6800 2093.2250
9.7000 2089.1050
9.7200 2021.4700
9.7400 1979.8575
9.7600 2178.6900
9.7800 2172.2400
9.8000 2205.5700
9.8200 2103.3500
9.8400 2174.7625
9.8600 2080.0575
9.8800 1996.2600
9.9000 2044.1750
9.9200 2146.8375
9.9400 2072.0350
9.9600 2127.2550
9.9800 2069.6675
10.0000 1960.5800
10.0200 2057.6500
10.0400 1973.3300
10.0600 2121.1800
10.0800 2104.1200
10.1000 1975.3000
10.1200 2130.7675
10.1400 1972.6375
10.1600 1980.6325
10.1800 1913.9675
10.2000 2038.9200
10.2200 2116.4975
10.2400 2048.7525
10.2600 2272.0525
10.2800 2240.6800
10.3000 2164.2050
10.3200 2169.6950
10.3400 2081.2825
10.3600 2142.7075
10.3800 2111.2425
10.4000 2149.6825
10.4200 2252.1800
10.4400 2183.3325
10.4600 2148.7200
10.4800 2020.7450
10.5000 2205.7425
10.5200 2204.6875
10.5400 2073.8125
10.5600 2149.6775
10.5800 2335.7775
10.6000 2238.2875
10.6200 2100.0000
10.6400 2091.5275
10.6600 2075.3575
10.6800 2185.9475
10.7000 2126.4800
10.7200 2173.6025
10.7400 2142.9525
10.7600 2045.8725
10.7800 2162.4925
10.8000 2198.6950
10.8200 2092.9050
10.8400 2233.2650
10.8600 2306.6000
10.8800 2422.8175
10.9000 2186.3325
10.9200 2137.1125
10.9400 2240.3075
10.9600 2237.4000
10.9800 2255.6300
11.0000 2249.7575
11.0200 2270.1475
11.0400 2169.0625
11.0600 2254.4275
11.0800 2404.3325
11.1000 2370.0325
11.1200 2300.0000
11.1400 2310.5825
11.1600 2378.5375
11.1800 2431.1450
11.2000 2369.7550
11.2200 2328.5900
11.2400 2246.6000
11.2600 2213.2325
11.2800 2394.4425
11.3000 2507.7550
11.3200 2546.1350
11.3400 2504.4475
11.3600 2378.8600
11.3800 2336.4225
11.4000 2476.3925
11.4200 2342.1800
11.4400 2080.5800
11.4600 2192.3800
11.4800 2399.6750
11.5000 2486.6550
11.5200 2470.8250
11.5400 2529.2175
11.5600 2421.1025
11.5800 2205.8600
11.6000 2242.2150
11.6200 2479.2650
11.6400 2200.9600
11.6600 2391.4550
11.6800 2361.1325
11.7000 2459.2375
11.7200 2336.4575
11.7400 2161.9450
11.7600 2201.3325
11.7800 2311.9200
11.8000 2357.1675
11.8200 2502.3750
11.8400 2504.8350
11.8600 2420.3650
11.8800 2348.7150
11.9000 2395.1775
11.9200 2379.3450
11.9400 2172.0775
11.9600 2326.8575
11.9800 2441.6675
12.0000 2415.2375
12.0200 2236.2625
12.0400 2162.5450
12.0600 2251.8925
12.0800 2327.9850
12.1000 2404.5100
12.1200 2397.4000
12.1400 2193.5125
12.1600 2339.9275
12.1800 2187.7500
12.2000 2290.7375
12.2200 2060.0625
12.2400 2045.1700
12.2600 2226.7825
12.2800 2185.5075
12.3000 2225.9875
12.3200 2343.9275
12.3400 1973.1100
12.3600 2048.7425
12.3800 2269.8600
12.4000 2306.5075
12.4200 2428.3875
12.4400 2525.6800
12.4600 2262.5925
12.4800 2408.3325
12.5000 2407.2975
12.5200 2376.2550
12.5400 2221.6950
12.5600 2314.6200
12.5800 2297.9625
12.6000 2270.1550
12.6200 2172.9825
12.6400 2186.4525
12.6600 2373.6750
12.6800 2225.7500
12.7000 2111.3025
12.7200 2131.3625
12.7400 2121.5700
12.7600 2178.8225
12.7800 2323.6250
12.8000 2259.6600
12.8200 2305.4575
12.8400 2138.5275
12.8600 2490.4850
12.8800 2376.9075
12.9000 2092.0950
12.9200 2272.9300
12.9400 2146.4350
12.9600 2277.7300
12.9800 1993.4075
13.0000 2202.8300
13.0200 2168.3675
13.0400 2246.3700
13.0600 2233.8100
13.0800 2354.3625
13.1000 2210.9925
13.1200 2437.2300
13.1400 2373.5325
13.1600 2156.1400
13.1800 2195.2525
13.2000 2086.8025
13.2200 2131.3200
13.2400 2277.1850
13.2600 2441.6675
13.2800 2412.0325
13.3000 2144.1100
13.3200 2120.9400
13.3400 2376.6825
13.3600 2318.3200
13.3800 2355.4975
13.4000 2544.4650
13.4200 2419.0975
13.4400 2419.9225
13.4600 2249.4725
13.4800 2555.1550
13.5000 2513.1550
13.5200 2409.4125
13.5400 2470.3925
13.5600 2199.5850
13.5800 2363.7125
13.6000 2405.9800
13.6200 2305.3050
13.6400 2355.3225
13.6600 2320.5175
13.6800 2300.2250
13.7000 2528.8700
13.7200 2229.3875
13.7400 2286.6125
13.7600 2428.5050
13.7800 2624.5075
13.8000 2433.8600
13.8200 2341.5500
13.8400 2254.1925
13.8600 2305.5450
13.8800 2361.8525
13.9000 2295.3700
13.9200 2174.3675
13.9400 2462.0850
13.9600 2586.6825
13.9800 2421.4475
14.0000 2282.6775
14.0200 2272.4025
14.0400 2248.1025
14.0600 2344.1425
14.0800 2569.3075
14.1000 2500.0000
14.1200 2496.8925
14.1400 2454.6400
14.1600 2409.5525
14.1800 2420.7675
14.2000 2365.4700
14.2200 2342.2900
14.2400 2259.8800
14.2600 2506.4000
14.2800 2595.7000
14.3000 2632.3175
14.3200 2396.7500
14.3400 2481.7600
14.3600 2682.8150
14.3800 2558.3325
14.4000 2539.3725
14.4200 2272.5625
14.4400 2362.0450
14.4600 2419.8125
14.4800 2473.4075
14.5000 2571.4100
14.5200 2513.1175
14.5400 2468.3550
14.5600 2617.5700
14.5800 2496.0850
14.6000 2434.3000
14.6200 2448.0900
14.6400 2419.9700
14.6600 2480.1250
14.6800 2556.5475
14.7000 2389.6900
14.7200 2503.5850
14.7400 2564.8975
14.7600 2524.1725
14.7800 2359.6250
14.8000 2382.9100
14.8200 2379.1825
14.8400 2467.4050
14.8600 2638.8225
14.8800 2579.7300
14.9000 2505.9675
14.9200 2449.0175
14.9400 2274.0025
14.9600 2597.3675
14.9800 2552.0275
15.0000 2760.4425
15.0200 2447.7500
15.0400 2580.8700
15.0600 2528.8025
15.0800 2610.8950
15.1000 2467.6650
15.1200 2311.3000
15.1400 2786.8500
15.1600 2658.1650
15.1800 2438.2700
15.2000 2356.6550
15.2200 2528.8875
15.2400 2415.0050
15.2600 2595.4575
15.2800 2463.3350
15.3000 2375.0800
15.3200 2619.6975
15.3400 2461.9575
15.3600 2580.5575
15.3800 2757.3475
15.4000 2723.5600
15.4200 2669.6225
15.4400 2485.6075
15.4600 2568.2150
15.4800 2621.7775
15.5000 2499.3750
15.5200 2475.4050
15.5400 2494.2125
15.5600 2599.2425
15.5800 2565.0200
15.6000 2493.7850
15.6200 2590.1350
15.6400 2515.8475
15.6600 2476.1025
15.6800 2537.7100
15.7000 2777.0225
15.7200 2886.1450
15.7400 2559.1225
15.7600 2607.9575
15.7800 2586.1800
15.8000 2782.5475
15.8200 2725.7400
15.8400 2783.1350
15.8600 2765.9250
15.8800 2698.0200
15.9000 2510.4800
15.9200 2733.5525
15.9400 2758.0025
15.9600 2716.2475
15.9800 2657.0025
16.0000 2450.5600
16.0200 2550.8800
16.0400 2733.0325
16.0600 2658.8700
16.0800 2824.3150
16.1000 2541.7200
16.1200 2575.0750
16.1400 2666.6700
16.1600 2791.5700
16.1800 2958.0700
16.2000 2866.8850
16.2200 2791.9050
16.2400 2824.8675
16.2600 2891.3475
16.2800 2502.1950
16.3000 2781.5175
16.3200 2899.1575
16.3400 2866.9350
16.3600 2767.5500
16.3800 2799.6775
16.4000 2643.3250
16.4200 2732.2975
16.4400 2782.7275
16.4600 2840.9125
16.4800 2825.2300
16.5000 2948.1800
16.5200 2818.7175
16.5400 2767.4775
16.5600 2922.3050
16.5800 2777.6775
16.6000 2930.3750
16.6200 3080.4075
16.6400 2830.2525
16.6600 2857.6275
16.6800 2784.9825
16.7000 2962.4825
16.7200 2966.6675
16.7400 2860.9850
16.7600 3004.5350
16.7800 2910.9500
16.8000 2884.0075
16.8200 2697.0000
16.8400 2877.8375
16.8600 2867.1575
16.8800 2947.4700
16.9000 3135.6875
16.9200 2819.0125
16.9400 3009.8175
16.9600 3121.3475
16.9800 2746.8750
17.0000 3030.7450
17.0200 2953.3250
17.0400 2709.2800
17.0600 2724.0500
17.0800 2853.1575
17.1000 2946.3625
17.1200 2870.0450
17.1400 3018.4475
17.1600 3136.7375
17.1800 2910.4150
17.2000 3003.5725
17.2200 2761.5775
17.2400 3163.5400
17.2600 3119.7700
17.2800 3338.9400
17.3000 2969.3050
17.3200 3060.9350
17.3400 2829.1650
17.3600 3125.1375
17.3800 2738.6500
17.4000 2874.5675
17.4200 2867.5575
17.4400 3087.3200
17.4600 3013.3950
17.4800 3142.0550
17.5000 3039.9775
17.5200 3268.8750
17.5400 3102.9200
17.5600 3154.3600
17.5800 3220.9700
17.6000 3037.2675
17.6200 3025.0000
17.6400 3126.4975
17.6600 2914.9300
17.6800 2868.8300
17.7000 2952.3050
17.7200 2818.3300
17.7400 3018.1400
17.7600 2971.2275
17.7800 3067.4925
17.8000 3260.9625
17.8200 3019.5475
17.8400 3262.9425
17.8600 3252.4300
17.8800 3265.4375
17.9000 3120.1525
17.9200 3223.8900
17.9400 3225.6375
17.9600 3078.9125
17.9800 3174.2050
18.0000 3160.3125
18.0200 3250.3300
18.0400 3220.0400
18.0600 3163.1075
18.0800 3265.3475
18.1000 3129.9100
18.1200 3192.9550
18.1400 3520.0875
18.1600 3298.7500
18.1800 3062.0300
18.2000 3117.6500
18.2200 3178.1350
18.2400 3183.3325
18.2600 3054.5475
18.2800 3124.9150
18.3000 3125.7725
18.3200 3245.8450
18.3400 3190.4275
18.3600 3243.6350
18.3800 3370.4775
18.4000 3473.6000
18.4200 3400.6725
18.4400 3098.8975
18.4600 3344.1400
18.4800 3240.1525
18.5000 2985.5175
18.5200 3122.8100
18.5400 3238.7575
18.5600 3346.9900
18.5800 3283.8025
18.6000 3237.7725
18.6200 3233.3325
18.6400 3218.4750
18.6600 3201.8225
18.6800 3496.5700
18.7000 3488.8950
18.7200 3401.9475
18.7400 3487.7475
18.7600 3455.7000
18.7800 3398.3725
18.8000 3509.5475
18.8200 3341.0075
18.8400 3456.3525
18.8600 3350.1525
18.8800 3421.3675
18.9000 3360.0500
18.9200 3166.9875
18.9400 3624.3000
18.9600 3677.0575
18.9800 3448.7975
19.0000 3686.3600
19.0200 3550.2525
19.0400 3648.6450
19.0600 3623.0750
19.0800 3711.0125
19.1000 3565.5125
19.1200 3556.1500
19.1400 3370.2600
19.1600 3392.2450
19.1800 3594.8775
19.2000 3502.4350
19.2200 3454.5275
19.2400 3385.2550
19.2600 3389.3725
19.2800 3592.6450
19.3000 3646.5100
19.3200 3814.7225
19.3400 3712.8975
19.3600 3534.4600
19.3800 3536.8850
19.4000 3491.7575
19.4200 3340.9000
19.4400 3594.1000
19.4600 3563.5050
19.4800 3443.5375
19.5000 3715.6700
19.5200 3653.3650
19.5400 3506.0125
19.5600 3900.1825
19.5800 3720.9425
19.6000 3590.4125
19.6200 3934.0875
19.6400 3767.9175
19.6600 3605.5800
19.6800 3618.4150
19.7000 3660.0425
19.7200 3624.6650
19.7400 3826.4300
19.7600 3720.0025
19.7800 3886.9900
19.8000 3506.9400
19.8200 3557.2300
19.8400 3611.1375
19.8600 3873.5625
19.8800 3800.1725
19.9000 3844.2675
19.9200 4072.8075
19.9400 3867.8975
19.9600 3830.4700
19.9800 3957.4225
20.0000 3714.7950
20.0200 3740.8625
20.0400 3820.1550
20.0600 3799.0300
20.0800 3798.5200
20.1000 4087.4600
20.1200 3897.0675
20.1400 3807.5275
20.1600 3868.1950
20.1800 3822.0325
20.2000 3713.0925
20.2200 3807.1750
20.2400 3656.8925
20.2600 3826.7825
20.2800 3807.3050
20.3000 3730.8150
20.3200 3905.7475
20.3400 3592.5375
20.3600 3616.1125
20.3800 3803.1350
20.4000 3935.7400
20.4200 3810.6900
20.4400 4016.2975
20.4600 3934.4200
20.4800 4020.3475
20.5000 4023.2900
20.5200 3763.2400
20.5400 3859.8575
20.5600 4186.0500
20.5800 3966.0025
20.6000 4024.3750
20.6200 3939.0475
20.6400 3789.2000
20.6600 3712.0625
20.6800 3818.8300
20.7000 3981.8650
20.7200 4187.8700
20.7400 4042.6200
20.7600 3886.5825
20.7800 3910.8075
20.8000 4075.6700
20.8200 4378.3600
20.8400 4136.3750
20.8600 3952.1200
20.8800 3846.7975
20.9000 4072.3150
20.9200 4037.6700
20.9400 4021.3150
20.9600 4193.5500
20.9800 3905.0100
21.0000 3769.5400
21.0200 3977.8725
21.0400 3944.9400
21.0600 4045.4650
21.0800 3948.2750
21.1000 4030.3650
21.1200 4041.0100
21.1400 4206.2850
21.1600 4258.3325
21.1800 4328.6050
21.2000 3979.9725
21.2200 4096.0300
21.2400 4052.1400
21.2600 3984.8975
21.2800 4089.2150
21.3000 3928.5625
21.3200 4265.3325
21.3400 4290.5575
21.3600 4207.8475
21.3800 4279.8950
21.4000 4295.7475
21.4200 4354.5150
21.4400 4312.2400
21.4600 4166.3200
21.4800 4225.1400
21.5000 4339.5825
21.5200 4248.0825
21.5400 4127.3100
21.5600 4149.7900
21.5800 4129.3750
21.6000 4352.5125
21.6200 4235.0050
21.6400 4148.1000
21.6600 4135.4875
21.6800 4299.9650
21.7000 4364.4950
21.7200 4243.5850
21.7400 4200.0000
21.7600 4181.5900
21.7800 4034.0625
21.8000 4179.1400
21.8200 4011.7025
21.8400 4327.6950
21.8600 4377.5175
21.8800 4548.5175
21.9000 4357.6975
21.9200 4258.3325
21.9400 4246.2175
21.9600 4235.6175
21.9800 4342.0500
22.0000 4232.5575
22.0200 4379.7550
22.0400 4362.1200
22.0600 4258.9500
22.0800 4191.3625
22.1000 4444.4075
22.1200 4376.6400
22.1400 4570.9750
22.1600 4371.0275
22.1800 4357.1250
22.2000 4524.7925
22.2200 4420.7250
22.2400 4589.3975
22.2600 4322.4650
22.2800 4387.6500
22.3000 4492.6950
22.3200 4517.6675
22.3400 4442.6775
22.3600 4531.6325
22.3800 4372.2850
22.4000 4488.2075
22.4200 4399.6625
22.4400 4529.2475
22.4600 4395.2500
22.4800 4317.4525
22.5000 4458.6025
22.5200 4563.0650
22.5400 4606.4975
22.5600 4634.0125
22.5800 4739.8075
22.6000 4633.4675
22.6200 4463.0750
22.6400 4600.5425
22.6600 4568.5900
22.6800 4757.2500
22.7000 4557.8325
22.7200 4450.9275
22.7400 4603.4950
22.7600 4615.4375
22.7800 4597.3500
22.8000 4492.1925
22.8200 4639.9450
22.8400 4631.5225
22.8600 4583.3325
22.8800 4791.9400
22.9000 4863.5225
22.9200 4681.4000
22.9400 4633.6650
22.9600 4767.6400
22.9800 4813.8150
23.0000 4886.5050
23.0200 4908.2750
23.0400 4799.8175
23.0600 4672.2075
23.0800 4572.3100
23.1000 4475.2050
23.1200 4314.4925
23.1400 4520.4925
23.1600 4564.6425
23.1800 4648.7175
23.2000 4557.3700
23.2200 4540.8075
23.2400 4640.6975
23.2600 4571.1525
23.2800 4576.6900
23.3000 4902.4950
23.3200 4916.9375
23.3400 4727.6525
23.3600 4785.9075
23.3800 5207.1225
23.4000 5054.2850
23.4200 4699.4950
23.4400 4516.8125
23.4600 4552.6575
23.4800 4680.4775
23.5000 4762.4925
23.5200 4703.1300
23.5400 4733.0625
23.5600 4892.2275
23.5800 4926.4175
23.6000 4674.6850
23.6200 4647.6875
23.6400 4861.7975
23.6600 4997.5450
23.6800 4782.4200
23.7000 4836.4450
23.7200 4902.7050
23.7400 4864.5075
23.7600 4800.7300
23.7800 4703.9375
23.8000 4635.3575
23.8200 4830.2375
23.8400 4927.1350
23.8600 4913.5250
23.8800 4797.4950
23.9000 4683.6225
23.9200 4663.4950
23.9400 4800.6600
23.9600 4790.7350
23.9800 4651.1700
24.0000 4471.8525
24.0200 4458.1825
24.0400 4617.4700
24.0600 4803.8250
24.0800 4590.0225
24.1000 4652.1550
24.1200 4899.6000
24.1400 4705.2800
24.1600 4481.0450
24.1800 4582.8575
24.2000 4559.2350
24.2200 4603.9075
24.2400 4628.1725
24.2600 4766.8550
24.2800 4748.4400
24.3000 4783.0025
24.3200 4841.7800
24.3400 4725.6375
24.3600 4514.5275
24.3800 4500.8075
24.4000 4573.1550
24.4200 4607.9875
24.4400 4570.8625
24.4600 4474.3875
24.4800 4590.2275
24.5000 4523.8300
24.5200 4619.7900
24.5400 4677.5025
24.5600 4686.1825
24.5800 4610.5475
24.6000 4642.6850
24.6200 4689.7950
24.6400 4643.8500
24.6600 4739.3475
24.6800 4581.0025
24.7000 4408.3325
24.7200 4393.9600
24.7400 4435.9275
24.7600 4441.5950
24.7800 4435.7175
24.8000 4464.2600
24.8200 4489.2325
24.8400 4552.0800
24.8600 4662.5425
24.8800 4447.8700
24.9000 4222.8425
24.9200 4419.6950
24.9400 4667.7100
24.9600 4728.6550
24.9800 4743.6750
25.0000 4623.2125
25.0200 4521.3175
25.0400 4645.6525
25.0600 4672.2000
25.0800 4630.5325
25.1000 4683.1775
25.1200 4615.4050
25.1400 4496.5850
25.1600 4498.7550
25.1800 4703.4075
25.2000 4786.0875
25.2200 4756.1125
25.2400 4688.6200
25.2600 4544.0775
25.2800 4587.4625
25.3000 4738.2525
25.3200 4512.1375
25.3400 4454.9625
25.3600 4482.6250
25.3800 4437.7225
25.4000 4478.2550
25.4200 4457.7450
25.4400 4507.8725
25.4600 4620.5250
25.4800 4422.3250
25.5000 4315.0075
25.5200 4425.4950
25.5400 4508.2100
25.5600 4618.9500
25.5800 4553.0800
25.6000 4401.4450
25.6200 4463.5300
25.6400 4527.4525
25.6600 4565.5750
25.6800 4390.3975
25.7000 4387.4275
25.7200 4526.8800
25.7400 4574.4075
25.7600 4588.9975
25.7800 4705.7025
25.8000 4699.0150
25.8200 4503.8525
25.8400 4525.7650
25.8600 4575.3450
25.8800 4557.7225
25.9000 4499.5975
25.9200 4589.0525
25.9400 4594.6350
25.9600 4420.1800
25.9800 4517.8225
26.0000 4662.4025
26.0200 4633.3125
26.0400 4733.3425
26.0600 4891.5575
26.0800 4941.6675
26.1000 4887.8675
26.1200 4730.1100
26.1400 4695.0300
26.1600 4828.3150
26.1800 4830.1625
26.2000 4873.0275
26.2200 5224.1275
26.2400 5230.6975
26.2600 5121.2375
26.2800 5388.4725
26.3000 5552.8075
26.3200 5684.7050
26.3400 5803.1675
26.3600 5901.5775
26.3800 5854.8550
26.4000 5780.9350
26.4200 5686.2225
26.4400 5560.4050
26.4600 5739.2325
26.4800 6041.6175
26.5000 6339.0400
26.5200 6081.2050
26.5400 5684.8800
26.5600 5651.0375
26.5800 5628.7000
26.6000 5743.4300
26.6200 5623.8375
26.6400 5542.5600
26.6600 5662.2050
26.6800 5612.6075
26.7000 5523.0375
26.7200 5430.1900
26.7400 5182.0300
26.7600 5204.3850
26.7800 5242.3750
26.8000 4993.2950
26.8200 4926.3475
26.8400 4868.8900
26.8600 5058.6975
26.8800 5117.1575
26.9000 4960.3275
26.9200 4865.4425
26.9400 4788.4925
26.9600 4692.3325
26.9800 4656.5375
27.0000 4634.2125
27.0200 4579.6350
27.0400 4560.2450
27.0600 4618.9300
27.0800 4683.6400
27.1000 4678.2675
27.1200 4637.3900
27.1400 4645.1475
27.1600 4654.7500
27.1800 4401.4775
27.2000 4403.3550
27.2200 4538.2825
27.2400 4462.4750
27.2600 4378.7475
27.2800 4632.2550
27.3000 4668.2875
27.3200 4427.2100
27.3400 4421.8275
27.3600 4226.2675
27.3800 4280.4450
27.4000 4513.0150
27.4200 4381.6025
27.4400 4434.7375
27.4600 4501.7700
27.4800 4473.0275
27.5000 4422.4125
27.5200 4322.4550
27.5400 4431.6025
27.5600 4282.6750
27.5800 4102.9825
27.6000 4064.9750
27.6200 4264.0475
27.6400 4389.4625
27.6600 4370.3450
27.6800 4454.1000
27.7000 4428.8100
27.7200 4305.2575
27.7400 4380.1725
27.7600 4391.5725
27.7800 4321.6675
27.8000 4235.1650
27.8200 4209.6500
27.8400 4329.7400
27.8600 4434.3050
27.8800 4456.0150
27.9000 4350.0000
27.9200 4304.2800
27.9400 4327.7625
27.9600 4539.9300
27.9800 4748.4850
28.0000 4716.5750
28.0200 4332.4300
28.0400 4234.6250
28.0600 4329.9600
28.0800 4391.3700
28.1000 4416.8575
28.1200 4630.1650
28.1400 4587.0825
28.1600 4562.8025
28.1800 4603.0150
28.2000 4666.8575
28.2200 4745.9350
28.2400 4506.6500
28.2600 4399.6325
28.2800 4489.5175
28.3000 4395.1850
28.3200 4302.7150
28.3400 4563.3500
28.3600 4755.2800
28.3800 4762.1775
28.4000 4707.4675
28.4200 4535.6750
28.4400 4481.7425
28.4600 4541.3975
28.4800 4552.0625
28.5000 4481.6000
28.5200 4520.2400
28.5400 4437.8150
28.5600 4353.5150
28.5800 4538.7175
28.6000 4574.4700
28.6200 4664.6425
28.6400 4647.8800
28.6600 4627.7650
28.6800 4686.5700
28.7000 4542.8700
28.7200 4483.9500
28.7400 4413.3150
28.7600 4233.8350
28.7800 4383.5825
28.8000 4497.4950
28.8200 4444.7775
28.8400 4684.9425
28.8600 4566.9850
28.8800 4616.6675
28.9000 4644.6050
28.9200 4711.1375
28.9400 4705.5875
28.9600 4627.8800
28.9800 4616.3975
29.0000 4642.1475
29.0200 4585.6950
29.0400 4611.6750
29.0600 4560.8675
29.0800 4699.7425
29.1000 4814.8800
29.1200 4670.9575
29.1400 4890.1825
29.1600 4811.3300
29.1800 4831.9100
29.2000 4923.8450
29.2200 4845.6475
29.2400 4621.9025
29.2600 4794.0800
29.2800 4999.7175
29.3000 5082.9375
29.3200 4817.2250
29.3400 4833.5675
29.3600 4990.6550
29.3800 5172.4375
29.4000 5161.5600
29.4200 5142.3700
29.4400 5302.3850
29.4600 5599.7800
29.4800 5465.6825
29.5000 5693.2500
29.5200 5552.5825
29.5400 5478.9575
29.5600 5603.8125
29.5800 5637.3975
29.6000 5530.4475
29.6200 5683.6850
29.6400 5912.8100
29.6600 5914.9025
29.6800 6204.5225
29.7000 6585.2650
29.7200 6167.2800
29.7400 6076.5425
29.7600 6372.6050
29.7800 6594.9750
29.8000 6778.3350
29.8200 6805.3200
29.8400 6773.6375
29.8600 7034.6475
29.8800 7294.4225
29.9000 7507.0225
29.9200 7305.9700
29.9400 7562.6875
29.9600 7750.4900
29.9800 8380.2925
30.0000 8347.7350
30.0200 8470.2450
30.0400 8805.4350
30.0600 8837.6250
30.0800 8999.4250
30.1000 8877.4325
30.1200 8791.5850
30.1400 9240.6450
30.1600 9234.7750
30.1800 9763.9625
30.2000 9894.0350
30.2200 9670.6675
30.2400 9784.1425
30.2600 9713.7650
30.2800 9933.1200
30.3000 10204.7050
30.3200 10078.3350
30.3400 9542.5150
30.3600 9785.2700
30.3800 9708.3350
30.4000 9731.3725
30.4200 9565.3600
30.4400 9363.8150
30.4600 9490.3825
30.4800 9327.7975
30.5000 9119.8650
30.5200 8722.3000
30.5400 8515.0925
30.5600 8204.1175
30.5800 7882.1075
30.6000 7828.9575
30.6200 7886.9525
30.6400 7900.0925
30.6600 7429.6200
30.6800 7356.8425
30.7000 7344.8225
30.7200 6771.1575
30.7400 6750.6850
30.7600 6637.4975
30.7800 6385.2000
30.8000 6522.0350
30.8200 6443.9850
30.8400 6345.6175
30.8600 6439.7625
30.8800 6268.6925
30.9000 5962.3275
30.9200 5498.7400
30.9400 5523.3850
30.9600 5324.5975
30.9800 5412.0950
31.0000 5514.8775
31.0200 5502.9975
31.0400 5440.8750
31.0600 5276.2950
31.0800 5313.0050
31.1000 5482.1150
31.1200 5199.0325
31.1400 5094.8350
31.1600 5039.0450
31.1800 4891.4875
31.2000 4839.7075
31.2200 4815.4950
31.2400 4926.2950
31.2600 4570.0350
31.2800 4501.3150
31.3000 4673.7700
31.3200 4592.2425
31.3400 4800.7950
31.3600 4631.0825
31.3800 4510.6700
31.4000 4655.3725
31.4200 4737.2500
31.4400 4511.6525
31.4600 4458.7025
31.4800 4727.1475
31.5000 4443.0000
31.5200 4309.8375
31.5400 4487.7400
31.5600 4373.9375
31.5800 4144.6575
31.6000 4306.8300
31.6200 4280.5700
31.6400 4193.1525
31.6600 4149.8225
31.6800 3963.5925
31.7000 4218.3000
31.7200 4370.3050
31.7400 4285.3225
31.7600 4110.7075
31.7800 3852.5150
31.8000 4098.4650
31.8200 4041.5975
31.8400 4062.6000
31.8600 4326.6400
31.8800 4108.0350
31.9000 4192.4450
31.9200 4051.0100
31.9400 4362.3625
31.9600 4099.9275
31.9800 3732.7700
32.0000 3682.4625
32.0200 3897.3875
32.0400 3867.7650
32.0600 3809.0900
32.0800 3956.3925
32.1000 3995.4750
32.1200 3978.8725
32.1400 3759.1650
32.1600 3771.2750
32.1800 4071.0150
32.2000 3988.9975
32.2200 3927.4250
32.2400 3889.9075
32.2600 3614.3875
32.2800 3802.3700
32.3000 3820.1925
32.3200 3821.8400
32.3400 3712.7275
32.3600 3768.7125
32.3800 3638.6600
32.4000 3722.7425
32.4200 3699.3750
32.4400 3694.9675
32.4600 4026.2500
32.4800 3907.5300
32.5000 3773.2650
32.5200 3661.8050
32.5400 3733.1550
32.5600 3656.0175
32.5800 3543.8150
32.6000 3675.0000
32.6200 3650.3575
32.6400 3479.0700
32.6600 3516.4000
32.6800 3575.0000
32.7000 3587.8650
32.7200 3691.1775
32.7400 3703.3875
32.7600 3364.4275
32.7800 3510.2475
32.8000 3768.2400
32.8200 3653.7375
32.8400 3662.0625
32.8600 3518.2200
32.8800 3711.5800
32.9000 3548.5850
32.9200 3659.9050
32.9400 3550.0275
32.9600 3679.4950
32.9800 3554.3550
33.0000 3407.3375
33.0200 3686.6150
33.0400 3657.4850
33.0600 3768.7125
33.0800 3471.9350
33.1000 3389.2050
33.1200 3582.4925
33.1400 3442.6250
33.1600 3655.9050
33.1800 3320.6250
33.2000 3446.9800
33.2200 3497.7500
33.2400 3457.2225
33.2600 3310.8450
33.2800 3674.6650
33.3000 3589.0400
33.3200 3635.2150
33.3400 3474.3050
33.3600 3463.2375
33.3800 3418.2350
33.4000 3331.6550
33.4200 3251.5575
33.4400 3650.5425
33.4600 3569.2150
33.4800 3685.4900
33.5000 3502.7375
33.5200 3440.0725
33.5400 3543.1075
33.5600 3769.6500
33.5800 3671.9025
33.6000 3297.6950
33.6200 3271.7700
33.6400 3365.1050
33.6600 3682.8825
33.6800 3540.5175
33.7000 3308.2800
33.7200 3676.0425
33.7400 3682.9525
33.7600 3536.4025
33.7800 3333.9025
33.8000 3473.5425
33.8200 3452.8575
33.8400 3510.2825
33.8600 3672.7925
33.8800 3484.4775
33.9000 3368.4575
33.9200 3555.6050
33.9400 3655.8000
33.9600 3605.8550
33.9800 3549.4425
34.0000 3390.0125
34.0200 3683.1725
34.0400 3506.8250
34.0600 3468.3750
34.0800 3334.6950
34.1000 3557.3525
34.1200 3708.6275
34.1400 3335.6275
34.1600 3599.0975
34.1800 3774.5375
34.2000 3542.6750
34.2200 3355.3325
34.2400 3504.8825
34.2600 3644.7275
34.2800 3726.6000
34.3000 3513.5425
34.3200 3169.3975
34.3400 3523.3025
34.3600 3469.9375
34.3800 3593.6675
34.4000 3957.3925
34.4200 3611.6425
34.4400 3742.0625
34.4600 3760.4125
34.4800 3853.7800
34.5000 4021.9200
34.5200 3872.0800
34.5400 3729.2950
34.5600 3953.4225
34.5800 3677.9825
34.6000 3857.4475
34.6200 3801.4150
34.6400 3898.4750
34.6600 3784.4350
34.6800 3880.1100
34.7000 4339.3600
34.7200 4105.6850
34.7400 3809.5625
34.7600 3966.8900
34.7800 4000.2350
34.8000 4041.4750
34.8200 3999.6175
34.8400 3891.5225
34.8600 3833.2750
34.8800 3791.7425
34.9000 4008.1800
34.9200 3875.2350
34.9400 4057.8175
34.9600 3601.7725
34.9800 4114.1250
35.0000 3942.7125
35.0200 4181.6350
35.0400 4224.6625
35.0600 4183.7125
35.0800 4166.8375
35.1000 4265.5425
35.1200 4241.9725
35.1400 4052.5550
35.1600 3852.8750
35.1800 3940.2525
35.2000 4121.9800
35.2200 4223.2475
35.2400 3971.4625
35.2600 4081.0450
35.2800 4026.2050
35.3000 4106.5250
35.3200 3994.3200
35.3400 3942.8550
35.3600 3811.6425
35.3800 3735.2725
35.4000 3757.6600
35.4200 3717.8300
35.4400 3684.3000
35.4600 3489.3375
35.4800 3604.4500
35.5000 3713.1900
35.5200 3587.7500
35.5400 3687.9650
35.5600 3675.5875
35.5800 3594.6875
35.6000 3423.1900
35.6200 3697.1625
35.6400 3468.1675
35.6600 3674.2500
35.6800 3475.6350
35.7000 3586.3625
35.7200 3456.1575
35.7400 3083.7200
35.7600 3456.4150
35.7800 3379.6550
35.8000 3351.1900
35.8200 3310.3575
35.8400 3173.6950
35.8600 3285.3350
35.8800 3260.0550
35.9000 3045.1900
35.9200 3277.7900
35.9400 2992.3325
35.9600 3093.0300
35.9800 3265.0650
36.0000 3180.7800
36.0200 2790.6825
36.0400 2978.2050
36.0600 2897.7525
36.0800 2883.8500
36.1000 3250.3700
36.1200 3157.9875
36.1400 3079.8675
36.1600 2841.4825
36.1800 2716.1425
36.2000 2762.7025
36.2200 3077.0125
36.2400 3022.4975
36.2600 2939.2475
36.2800 2948.8000
36.3000 2872.7500
36.3200 2974.7000
36.3400 3176.0375
36.3600 2752.7775
36.3800 2924.3350
36.4000 2857.1525
36.4200 2965.1200
36.4400 2829.3400
36.4600 2824.3250
36.4800 2725.5550
36.5000 2609.6900
36.5200 2683.9625
36.5400 2630.6700
36.5600 2960.1175
36.5800 2869.9400
36.6000 2683.5400
36.6200 2689.4400
36.6400 2797.8300
36.6600 2846.2075
36.6800 2577.6075
36.7000 2678.4900
36.7200 2691.6675
36.7400 2646.4175
36.7600 2777.2675
36.7800 2844.3425
36.8000 2872.5500
36.8200 2829.9475
36.8400 2644.9900
36.8600 2535.0925
36.8800 2674.6800
36.9000 2489.8200
36.9200 2623.4850
36.9400 2790.8550
36.9600 2748.7225
36.9800 2816.0975
37.0000 2772.9550
37.0200 2543.8675
37.0400 2613.1075
37.0600 2506.4350
37.0800 2809.9625
37.1000 2886.9700
37.1200 2684.8600
37.1400 2717.3550
37.1600 2820.8050
37.1800 2619.8475
37.2000 2643.1400
37.2200 2561.8550
37.2400 2491.3025
37.2600 2461.3450
37.2800 2839.0300
37.3000 2686.9025
37.3200 2534.1500
37.3400 2903.4025
37.3600 2797.9800
37.3800 2694.9125
37.4000 2712.4250
37.4200 2745.7250
37.4400 2633.8925
37.4600 2558.6775
37.4800 2767.2200
37.5000 2611.9500
37.5200 2590.5575
37.5400 2519.5000
37.5600 2602.0475
37.5800 2343.0400
37.6000 2407.8925
37.6200 2539.9575
37.6400 2587.0400
37.6600 2340.7550
37.6800 2464.7025
37.7000 2763.4825
37.7200 2601.1250
37.7400 2538.1175
37.7600 2469.1700
37.7800 2643.4900
37.8000 2497.1625
37.8200 2530.6175
37.8400 2442.2975
37.8600 2566.7975
37.8800 2485.4375
37.9000 2473.7400
37.9200 2390.2050
37.9400 2494.9925
37.9600 2460.2625
37.9800 2513.3850
38.0000 2574.2450
38.0200 2527.1150
38.0400 2628.9775
38.0600 2467.7000
38.0800 2384.3075
38.1000 2423.9725
38.1200 2622.0150
38.1400 2658.3325
38.1600 2414.2900
38.1800 2422.3850
38.2000 2607.2625
38.2200 2488.7775
38.2400 2416.6825
38.2600 2387.5325
38.2800 2175.5450
38.3000 2361.6475
38.3200 2498.1750
38.3400 2537.3775
38.3600 2376.1725
38.3800 2348.5550
38.4000 2673.3700
38.4200 2569.8525
38.4400 2334.2500
38.4600 2236.8075
38.4800 2293.4975
38.5000 2424.6475
38.5200 2415.8275
38.5400 2497.0825
38.5600 2448.4750
38.5800 2453.7675
38.6000 2376.6850
38.6200 2494.2625
38.6400 2416.3775
38.6600 2649.3550
38.6800 2471.2525
38.7000 2457.2650
38.7200 2399.0800
38.7400 2464.3475
38.7600 2557.5125
38.7800 2453.7500
38.8000 2505.7425
38.8200 2424.1825
38.8400 2426.8550
38.8600 2346.1525
38.8800 2365.1925
38.9000 2441.9125
38.9200 2605.3750
38.9400 2481.4350
38.9600 2615.0575
38.9800 2744.9325
39.0000 2487.1975
39.0200 2436.6075
39.0400 2647.4825
39.0600 2560.7325
39.0800 2385.8875
39.1000 2502.1925
39.1200 2422.6925
39.1400 2358.6550
39.1600 2402.7600
39.1800 2363.9650
39.2000 2534.2475
39.2200 2550.4675
39.2400 2561.3625
39.2600 2579.7825
39.2800 2399.9050
39.3000 2356.5425
39.3200 2377.9425
39.3400 2579.2100
39.3600 2626.8125
39.3800 2611.9700
39.4000 2523.7375
39.4200 2519.5000
39.4400 2245.8025
39.4600 2328.8100
39.4800 2407.3925
39.5000 2222.5275
39.5200 2341.1975
39.5400 2404.5800
39.5600 2421.2325
39.5800 2528.0800
39.6000 2436.0600
39.6200 2432.1400
39.6400 2467.3500
39.6600 2314.6500
39.6800 2330.7350
39.7000 2529.1925
39.7200 2506.6225
39.7400 2355.6225
39.7600 2437.8575
39.7800 2392.1725
39.8000 2436.6725
39.8200 2420.1900
39.8400 2414.6825
39.8600 2435.6950
39.8800 2448.0025
39.9000 2285.4450
39.9200 2328.1625
39.9400 2434.1125
39.9600 2483.5650
39.9800 2504.2675
40.0000 2502.0400
40.0200 2550.2975
40.0400 2441.0650
40.0600 2531.7350
40.0800 2449.6750
40.1000 2646.1850
40.1200 2518.6725
40.1400 2481.2275
40.1600 2591.4825
40.1800 2593.8425
40.2000 2384.1425
40.2200 2353.9725
40.2400 2341.8225
40.2600 2432.6000
40.2800 2336.5250
40.3000 2359.7600
40.3200 2420.4350
40.3400 2606.2825
40.3600 2592.6275
40.3800 2572.8300
40.4000 2704.2825
40.4200 2682.3550
40.4400 2388.0525
40.4600 2481.8825
40.4800 2384.5100
40.5000 2306.6325
40.5200 2336.6950
40.5400 2301.1275
40.5600 2362.6625
40.5800 2483.1000
40.6000 2455.7775
40.6200 2469.8275
40.6400 2477.2575
40.6600 2444.6550
40.6800 2457.5825
40.7000 2424.2775
40.7200 2335.7475
40.7400 2368.7550
40.7600 2735.6975
40.7800 2516.9825
40.8000 2564.0050
40.8200 2549.1125
40.8400 2432.5375
40.8600 2544.0650
40.8800 2558.0275
40.9000 2457.8125
40.9200 2508.7625
40.9400 2463.9725
40.9600 2415.4225
40.9800 2384.4800
41.0000 2476.2675
41.0200 2510.7150
41.0400 2437.0050
41.0600 2461.7700
41.0800 2412.1600
41.1000 2412.9550
41.1200 2353.9825
41.1400 2472.7925
41.1600 2562.8600
41.1800 2521.9100
41.2000 2470.5375
41.2200 2481.8775
41.2400 2285.8775
41.2600 2299.8450
41.2800 2441.4050
41.3000 2383.7025
41.3200 2447.0425
41.3400 2468.2750
41.3600 2551.7975
41.3800 2527.4800
41.4000 2412.5650
41.4200 2369.1775
41.4400 2419.0150
41.4600 2348.7050
41.4800 2517.2725
41.5000 2393.8225
41.5200 2357.9125
41.5400 2394.9025
41.5600 2446.2300
41.5800 2512.8475
41.6000 2539.1000
41.6200 2599.2700
41.6400 2463.8850
41.6600 2426.1550
41.6800 2384.2475
41.7000 2346.8625
41.7200 2502.0925
41.7400 2615.0650
41.7600 2467.5325
41.7800 2294.5775
41.8000 2392.6275
41.8200 2583.7100
41.8400 2607.5100
41.8600 2477.9300
41.8800 2373.8725
41.9000 2412.4225
41.9200 2418.9925
41.9400 2493.2750
41.9600 2595.5575
41.9800 2393.3200
42.0000 2362.3600
42.0200 2495.8575
42.0400 2406.4800
42.0600 2471.0825
42.0800 2420.9150
42.1000 2243.1375
42.1200 2385.2575
42.1400 2438.5075
42.1600 2511.8200
42.1800 2446.5075
42.2000 2481.0325
42.2200 2502.6825
42.2400 2619.8625
42.2600 2555.2725
42.2800 2313.6825
42.3000 2380.5750
42.3200 2397.2800
42.3400 2294.5875
42.3600 2286.0275
42.3800 2460.4575
42.4000 2502.9750
42.4200 2212.7800
42.4400 2058.4525
42.4600 2369.5800
42.4800 2511.3150
42.5000 2521.9950
42.5200 2450.9400
42.5400 2353.4625
42.5600 2275.6675
42.5800 2419.7500
42.6000 2442.6925
42.6200 2364.6175
42.6400 2352.5850
42.6600 2358.3325
42.6800 2418.2575
42.7000 2466.3250
42.7200 2469.5625
42.7400 2537.2675
42.7600 2575.0000
42.7800 2667.1350
42.8000 2711.2525
42.8200 2648.8375
42.8400 2524.8125
42.8600 2545.1700
42.8800 2540.1975
42.9000 2398.1600
42.9200 2446.3375
42.9400 2459.9525
42.9600 2406.4825
42.9800 2611.6250
43.0000 2674.3800
43.0200 2673.7900
43.0400 2515.1650
43.0600 2448.7250
43.0800 2461.3300
43.1000 2303.6950
43.1200 2387.1325
43.1400 2520.5850
43.1600 2663.9425
43.1800 2467.7825
43.2000 2518.2825
43.2200 2543.2275
43.2400 2496.9625
43.2600 2537.0300
43.2800 2558.3325
43.3000 2553.0550
43.3200 2481.4375
43.3400 2331.0200
43.3600 2524.5825
43.3800 2664.4825
43.4000 2563.7750
43.4200 2539.8225
43.4400 2500.6625
43.4600 2477.1425
43.4800 2410.0775
43.5000 2445.0775
43.5200 2402.8875
43.5400 2396.9550
43.5600 2503.1800
43.5800 2518.7575
43.6000 2572.8275
43.6200 2585.4850
43.6400 2483.5975
43.6600 2480.0150
43.6800 2461.6975
43.7000 2407.4500
43.7200 2572.6750
43.7400 2461.1650
43.7600 2325.0000
43.7800 2237.3350
43.8000 2234.8500
43.8200 2282.1075
43.8400 2389.3625
43.8600 2470.5475
43.8800 2524.3900
43.9000 2447.4575
43.9200 2496.0250
43.9400 2464.3175
43.9600 2425.5625
43.9800 2513.1750
44.0000 2440.9675
44.0200 2427.8425
44.0400 2441.2000
44.0600 2379.2050
44.0800 2329.6650
44.1000 2316.6675
44.1200 2326.8150
44.1400 2323.1950
44.1600 2458.4775
44.1800 2494.3400
44.2000 2347.1175
44.2200 2315.4050
44.2400 2412.3075
44.2600 2483.5400
44.2800 2500.0000
44.3000 2364.1400
44.3200 2239.8100
44.3400 2372.3675
44.3600 2309.4075
44.3800 2305.2800
44.4000 2400.0450
44.4200 2456.7000
44.4400 2463.3350
44.4600 2375.0725
44.4800 2200.2350
44.5000 2181.4850
44.5200 2289.7600
44.5400 2228.8150
44.5600 2282.6475
44.5800 2376.6025
44.6000 2298.9500
44.6200 2454.9125
44.6400 2352.2600
44.6600 2346.6950
44.6800 2433.6025
44.7000 2426.5500
44.7200 2359.2750
44.7400 2392.1900
44.7600 2440.1425
44.7800 2384.0925
44.8000 2251.6050
44.8200 2350.4600
44.8400 2299.6875
44.8600 2291.2850
44.8800 2376.4725
44.9000 2422.5200
44.9200 2621.2925
44.9400 2541.1825
44.9600 2541.6825
44.9800 2412.2400
45.0000 2430.4575
45.0200 2407.2700
45.0400 2363.2950
45.0600 2564.0025
45.0800 2378.5050
45.1000 2356.0675
45.1200 2399.4725
45.1400 2309.0925
45.1600 2306.2000
45.1800 2398.9475
45.2000 2318.0900
45.2200 2235.9950
45.2400 2303.1075
45.2600 2471.9100
45.2800 2508.8300
45.3000 2413.6925
45.3200 2326.8825
45.3400 2315.7050
45.3600 2304.5100
45.3800 2374.5325
45.4000 2465.6475
45.4200 2516.8775
45.4400 2532.0900
45.4600 2481.9400
45.4800 2469.1225
45.5000 2459.4500
45.5200 2498.9400
45.5400 2522.5900
45.5600 2289.1400
45.5800 2191.6575
45.6000 2236.9100
45.6200 2228.5800
45.6400 2286.7475
45.6600 2333.3325
45.6800 2461.3775
45.7000 2340.3550
45.7200 2056.6275
45.7400 2212.6900
45.7600 2437.8200
45.7800 2443.0475
45.8000 2453.3225
45.8200 2418.4000
45.8400 2356.1475
45.8600 2289.8650
45.8800 2344.1150
45.9000 2407.2625
45.9200 2353.0150
45.9400 2424.6500
45.9600 2423.8875
45.9800 2288.0150
46.0000 2322.3375
46.0200 2522.7300
46.0400 2610.9675
46.0600 2543.9125
46.0800 2434.6150
46.1000 2411.3350
46.1200 2414.6800
46.1400 2390.6800
46.1600 2406.6175
46.1800 2490.1450
46.2000 2434.7175
46.2200 2428.9900
46.2400 2403.4450
46.2600 2328.6925
46.2800 2325.0000
46.3000 2371.3325
46.3200 2283.3250
46.3400 2289.7450
46.3600 2402.7400
46.3800 2392.6600
46.4000 2445.1525
46.4200 2466.8100
46.4400 2460.9950
46.4600 2418.8325
46.4800 2408.1025
46.5000 2409.4600
46.5200 2240.8050
46.5400 2184.7300
46.5600 2247.1075
46.5800 2180.3325
46.6000 2171.6900
46.6200 2308.3100
46.6400 2259.6975
46.6600 2259.0050
46.6800 2355.3850
46.7000 2320.9675
46.7200 2287.9000
46.7400 2218.6425
46.7600 2281.4800
46.7800 2328.6375
46.8000 2337.9950
46.8200 2360.5725
46.8400 2237.0350
46.8600 2231.8325
46.8800 2259.1100
46.9000 2311.2700
46.9200 2415.0975
46.9400 2418.9925
46.9600 2381.8725
46.9800 2452.7200
47.0000 2353.0000
47.0200 2176.6675
47.0400 2281.1025
47.0600 2369.0775
47.0800 2322.9075
47.1000 2295.4875
47.1200 2381.8625
47.1400 2422.2775
47.1600 2297.0750
47.1800 2239.1750
47.2000 2222.3400
47.2200 2223.1425
47.2400 2196.0750
47.2600 2073.6500
47.2800 2125.0375
47.3000 2368.5525
47.3200 2505.1175
47.3400 2319.5075
47.3600 2320.1775
47.3800 2341.3450
47.4000 2143.8675
47.4200 2227.6150
47.4400 2268.3650
47.4600 2196.7300
47.4800 2306.5275
47.5000 2418.4325
47.5200 2343.5800
47.5400 2253.8775
47.5600 2347.9825
47.5800 2268.6325
47.6000 2222.8775
47.6200 2352.8000
47.6400 2307.2250
47.6600 2326.6150
47.6800 2412.7725
47.7000 2363.4175
47.7200 2343.2775
47.7400 2397.6975
47.7600 2331.9575
47.7800 2298.7125
47.8000 2390.3550
47.8200 2375.8225
47.8400 2325.0000
47.8600 2294.0625
47.8800 2244.5800
47.9000 2277.9825
47.9200 2417.6750
47.9400 2350.0300
47.9600 2269.5725
47.9800 2246.1600
48.0000 2231.7850
48.0200 2275.0000
48.0400 2354.2075
48.0600 2407.4075
48.0800 2281.7575
48.1000 2271.2200
48.1200 2358.7850
48.1400 2217.3950
48.1600 2135.9950
48.1800 2257.9025
48.2000 2325.0000
48.2200 2434.5625
48.2400 2559.6175
48.2600 2412.5650
48.2800 2380.8825
48.3000 2443.5425
48.3200 2281.9300
48.3400 2275.5350
48.3600 2371.0350
48.3800 2436.1450
48.4000 2526.5925
48.4200 2479.7850
48.4400 2438.8675
48.4600 2518.9900
48.4800 2501.2900
48.5000 2450.3800
48.5200 2514.9475
48.5400 2492.6625
48.5600 2381.4850
48.5800 2563.5025
48.6000 2592.7450
48.6200 2420.2950
48.6400 2425.7125
48.6600 2372.1775
48.6800 2451.5975
48.7000 2544.2750
48.7200 2547.3750
48.7400 2539.9675
48.7600 2543.3475
48.7800 2609.3325
48.8000 2650.6600
48.8200 2658.0075
48.8400 2537.4575
48.8600 2433.3325
48.8800 2476.5875
48.9000 2650.7100
48.9200 2623.7150
48.9400 2414.1975
48.9600 2440.7100
48.9800 2516.3650
49.0000 2607.6150
49.0200 2596.4375
49.0400 2612.1550
49.0600 2634.7350
49.0800 2584.1975
49.1000 2543.6925
49.1200 2642.7300
49.1400 2701.2275
49.1600 2694.1600
49.1800 2706.4125
49.2000 2650.0000
49.2200 2598.3850
49.2400 2657.4975
49.2600 2650.8700
49.2800 2515.6225
49.3000 2569.2525
49.3200 2748.7775
49.3400 2708.5725
49.3600 2591.9175
49.3800 2690.1075
49.4000 2779.2900
49.4200 2749.0250
49.4400 2759.5375
49.4600 2727.1375
49.4800 2804.0150
49.5000 2984.5025
49.5200 2973.6100
49.5400 2959.2500
49.5600 3090.1075
49.5800 3059.2450
49.6000 2851.8325
49.6200 2971.9475
49.6400 3064.0525
49.6600 3090.6250
49.6800 3105.7725
49.7000 3106.5950
49.7200 3135.9325
49.7400 3164.6725
49.7600 3185.9625
49.7800 3274.3825
49.8000 3463.6050
49.8200 3657.6425
49.8400 3718.9650
49.8600 3586.2350
49.8800 3635.6450
49.9000 3793.0000
49.9200 3926.6975
49.9400 3838.1175
49.9600 3602.4100
49.9800 3559.0650
50.0000 3689.5825
50.0200 3774.8200
50.0400 3873.0500
50.0600 4072.8525
50.0800 4200.6950
50.1000 4271.6075
50.1200 4312.5850
50.1400 4452.6950
50.1600 4570.5825
50.1800 4596.5750
50.2000 4590.8500
50.2200 4758.1275
50.2400 4741.7525
50.2600 4669.2000
50.2800 4897.6375
50.3000 4817.6525
50.3200 4798.5225
50.3400 4873.7825
50.3600 5024.6700
50.3800 5135.7875
50.4000 4990.7825
50.4200 5026.4600
50.4400 5154.9625
50.4600 5191.5225
50.4800 5018.0725
50.5000 4845.6225
50.5200 4879.9300
50.5400 4988.5300
50.5600 5096.5825
50.5800 5167.0700
50.6000 4941.9000
50.6200 4767.7225
50.6400 4752.9250
50.6600 4641.1500
50.6800 4671.7950
50.7000 4839.0850
50.7200 4645.6025
50.7400 4578.2350
50.7600 4757.8400
50.7800 4593.9425
50.8000 4449.7575
50.8200 4585.4875
50.8400 4636.1375
50.8600 4423.3575
50.8800 4228.0625
50.9000 4188.0175
50.9200 4018.0375
50.9400 3960.2550
50.9600 4091.5550
50.9800 4079.1100
51.0000 3927.2425
51.0200 3644.0350
51.0400 3571.6425
51.0600 3759.9375
51.0800 3760.9625
51.1000 3591.0375
51.1200 3427.7600
51.1400 3363.0675
51.1600 3391.4625
51.1800 3412.9575
51.2000 3416.2650
51.2200 3366.4675
51.2400 3425.8900
51.2600 3310.2950
51.2800 3095.4925
51.3000 3113.0300
51.3200 3044.5425
51.3400 3068.1825
51.3600 3052.5200
51.3800 2811.4275
51.4000 2885.1850
51.4200 2906.7725
51.4400 2770.8800
51.4600 2762.3650
51.4800 2792.1150
51.5000 2858.6000
51.5200 2706.4750
51.5400 2592.2825
51.5600 2650.0000
51.5800 2586.8500
51.6000 2558.6775
51.6200 2557.9925
51.6400 2689.1525
51.6600 2782.6600
51.6800 2704.0400
51.7000 2775.8300
51.7200 2685.8075
51.7400 2537.7050
51.7600 2528.8800
51.7800 2655.6675
51.8000 2707.3650
51.8200 2562.0600
51.8400 2436.7425
51.8600 2455.0775
51.8800 2587.8550
51.9000 2473.5900
51.9200 2325.0000
51.9400 2358.6425
51.9600 2353.8200
51.9800 2388.1525
52.0000 2315.3675
52.0200 2254.8900
52.0400 2379.5825
52.0600 2433.4075
52.0800 2382.8075
52.1000 2375.4475
52.1200 2357.7375
52.1400 2300.0750
52.1600 2274.7050
52.1800 2308.9225
52.2000 2421.2375
52.2200 2369.9925
52.2400 2249.7825
52.2600 2338.4800
52.2800 2382.7550
52.3000 2350.2900
52.3200 2374.9275
52.3400 2303.6275
52.3600 2241.6675
52.3800 2178.6300
52.4000 2192.3100
52.4200 2367.5200
52.4400 2437.2525
52.4600 2311.6850
52.4800 2359.5375
52.5000 2357.1325
52.5200 2111.6175
52.5400 2079.7650
52.5600 2158.4025
52.5800 2322.1350
52.6000 2378.3575
52.6200 2333.7550
52.6400 2286.6925
52.6600 2183.2625
52.6800 2187.6050
52.7000 2132.7725
52.7200 2154.9025
52.7400 2296.2875
52.7600 2207.1425
52.7800 2171.7100
52.8000 2354.8325
52.8200 2382.9125
52.8400 2291.3150
52.8600 2228.9925
52.8800 2204.1325
52.9000 2263.0275
52.9200 2358.6150
52.9400 2311.8325
52.9600 2178.7075
52.9800 2188.0300
53.0000 2308.8275
53.0200 2345.6575
53.0400 2211.5425
53.0600 2133.6175
53.0800 2154.0600
53.1000 2263.5325
53.1200 2282.4775
53.1400 2288.3925
53.1600 2391.6675
53.1800 2282.4000
53.2000 2187.6075
53.2200 2191.5950
53.2400 2149.7100
53.2600 2162.8975
53.2800 2191.5225
53.3000 2166.5950
53.3200 2204.5675
53.3400 2191.1550
53.3600 2116.5200
53.3800 2179.8675
53.4000 2224.7050
53.4200 2208.4825
53.4400 2225.0000
53.4600 2174.5525
53.4800 2179.6525
53.5000 2313.2125
53.5200 2349.6225
53.5400 2236.8575
53.5600 2217.1225
53.5800 2312.9175
53.6000 2320.4900
53.6200 2321.1775
53.6400 2358.3325
53.6600 2316.2800
53.6800 2350.6975
53.7000 2345.0950
53.7200 2300.3125
53.7400 2223.9800
53.7600 2129.2850
53.7800 2112.2225
53.8000 2087.5400
53.8200 2091.6675
53.8400 2058.0125
53.8600 2092.3100
53.8800 2250.8875
53.9000 2286.9750
53.9200 2258.5775
53.9400 2140.2800
53.9600 2046.2850
53.9800 2150.5750
54.0000 2267.2450
54.0200 2249.2525
54.0400 2128.7075
54.0600 2150.6700
54.0800 2208.2500
54.1000 2258.9250
54.1200 2320.8750
54.1400 2278.6975
54.1600 2195.4475
54.1800 2208.8500
54.2000 2195.1850
54.2200 2162.8025
54.2400 2275.8700
54.2600 2282.5450
54.2800 2178.8600
54.3000 2259.4800
54.3200 2181.3825
54.3400 2004.2100
54.3600 2058.8700
54.3800 2158.8725
54.4000 2250.4500
54.4200 2228.4875
54.4400 2086.6350
54.4600 2172.6150
54.4800 2278.5700
54.5000 2258.7025
54.5200 2283.2400
54.5400 2325.5575
54.5600 2303.3725
54.5800 2186.9850
54.6000 2133.2400
54.6200 2171.3550
54.6400 2279.8800
54.6600 2295.3075
54.6800 2380.6525
54.7000 2415.6075
54.7200 2346.0750
54.7400 2257.0700
54.7600 2065.6900
54.7800 2215.1950
54.8000 2382.6450
54.8200 2177.4375
54.8400 2100.7950
54.8600 2175.1000
54.8800 2250.8000
54.9000 2371.4875
54.9200 2370.1775
54.9400 2194.3650
54.9600 2121.3925
54.9800 2124.4900
55.0000 1994.7575
55.0200 2064.4050
55.0400 2204.0125
55.0600 2212.7600
55.0800 2300.8325
55.1000 2206.3475
55.1200 2172.3550
55.1400 2316.9825
55.1600 2278.3725
55.1800 2254.6450
55.2000 2148.1875
55.2200 2092.7375
55.2400 2099.0325
55.2600 2138.9550
55.2800 2144.4825
55.3000 2180.9575
55.3200 2278.6775
55.3400 2144.5750
55.3600 2138.6525
55.3800 2267.2175
55.4000 2236.5600
55.4200 2170.8900
55.4400 2200.3325
55.4600 2258.7800
55.4800 2215.6600
55.5000 2154.3350
55.5200 2238.4575
55.5400 2333.6725
55.5600 2252.7500
55.5800 2116.2125
55.6000 2057.9900
55.6200 2075.5725
55.6400 2108.2175
55.6600 2260.5225
55.6800 2294.1575
55.7000 2107.4075
55.7200 2181.0825
55.7400 2418.0650
55.7600 2415.2650
55.7800 2261.7375
55.8000 2187.2075
55.8200 2153.9900
55.8400 2095.1850
55.8600 2117.6125
55.8800 2196.0125
55.9000 2144.9400
55.9200 2079.1075
55.9400 2036.9625
55.9600 2042.2650
55.9800 2117.1475
56.0000 2099.2775
56.0200 2159.9025
56.0400 2152.5350
56.0600 2202.3025
56.0800 2248.4225
56.1000 2065.5725
56.1200 2055.0800
56.1400 2188.5375
56.1600 2199.1425
56.1800 2150.1225
56.2000 2268.2625
56.2200 2349.6300
56.2400 2206.6075
56.2600 2201.6050
56.2800 2261.8200
56.3000 2250.4950
56.3200 2186.0725
56.3400 2142.4125
56.3600 2102.8600
56.3800 2037.8125
56.4000 2083.7075
56.4200 2112.5625
56.4400 2120.8950
56.4600 2222.2750
56.4800 2232.0800
56.5000 2192.2950
56.5200 2271.4000
56.5400 2295.6450
56.5600 2224.1175
56.5800 2204.7350
56.6000 2216.2875
56.6200 2208.5850
56.6400 2212.3100
56.6600 2204.2300
56.6800 2191.4125
56.7000 2166.5400
56.7200 2103.3400
56.7400 2151.5250
56.7600 2254.2300
56.7800 2338.7100
56.8000 2293.9850
56.8200 2208.8425
56.8400 2258.5875
56.8600 2194.6200
56.8800 2036.2875
56.9000 2102.1725
56.9200 2203.5925
56.9400 2124.3600
56.9600 2028.3350
56.9800 2072.3050
57.0000 2056.6675
57.0200 2005.0000
57.0400 2142.9475
57.0600 2195.3850
57.0800 2196.2825
57.1000 2186.9225
57.1200 2209.2325
57.1400 2321.6675
57.1600 2277.6900
57.1800 2162.1800
57.2000 2120.5125
57.2200 2226.9275
57.2400 2231.5350
57.2600 2218.2075
57.2800 2185.5100
57.3000 2079.4875
57.3200 2125.3850
57.3400 2158.4625
57.3600 2158.2050
57.3800 2141.5375
57.4000 2196.7975
57.4200 2313.3350
57.4400 2197.4325
57.4600 2151.7975
57.4800 2241.2825
57.5000 2195.5125
57.5200 2094.6150
57.5400 2101.2825
57.5600 2157.9475
57.5800 2103.7175
57.6000 2138.4625
57.6200 2183.0775
57.6400 2204.7425
57.6600 2233.2050
57.6800 2229.2300
57.7000 2254.4875
57.7200 2253.8475
57.7400 2322.1750
57.7600 2315.2600
57.7800 2339.2250
57.8000 2331.5450
57.8200 2170.1325
57.8400 2243.4525
57.8600 2294.8775
57.8800 2313.7100
57.9000 2302.8300
57.9200 2271.6600
57.9400 2202.3225
57.9600 2155.2475
57.9800 2258.8425
58.0000 2190.1425
58.0200 2062.0550
58.0400 2126.3950
58.0600 2132.0675
58.0800 2155.7500
58.1000 2359.8500
58.1200 2293.3675
58.1400 2192.5500
58.1600 2211.9325
58.1800 2284.9725
58.2000 2366.2875
58.2200 2379.7325
58.2400 2391.2900
58.2600 2218.6325
58.2800 2180.7375
58.3000 2296.0225
58.3200 2291.4150
58.3400 2389.1925
58.3600 2415.4150
58.3800 2269.8950
58.4000 2301.3750
58.4200 2421.2700
58.4400 2437.3125
58.4600 2310.8175
58.4800 2301.4950
58.5000 2404.2300
58.5200 2467.5375
58.5400 2529.2275
58.5600 2546.0200
58.5800 2473.7600
58.6000 2463.5525
58.6200 2507.9625
58.6400 2491.7900
58.6600 2478.8575
58.6800 2399.1375
58.7000 2358.5800
58.7200 2362.3150
58.7400 2451.4750
58.7600 2600.7375
58.7800 2616.1750
58.8000 2583.3325
58.8200 2519.9150
58.8400 2597.8500
58.8600 2699.5125
58.8800 2577.8850
58.9000 2660.7700
58.9200 2731.9950
58.9400 2721.9875
58.9600 2846.5025
58.9800 2697.2100
59.0000 2567.5150
59.0200 2502.4100
59.0400 2590.4625
59.0600 2867.7550
59.0800 2903.6225
59.1000 2824.3975
59.1200 2762.2000
59.1400 2834.6575
59.1600 2815.1050
59.1800 2915.4400
59.2000 3057.4950
59.2200 2885.8825
59.2400 2973.6450
59.2600 3145.5350
59.2800 3116.5475
59.3000 3087.2025
59.3200 3151.1900
59.3400 3212.2025
59.3600 3031.0750
59.3800 3048.2675
59.4000 3220.8925
59.4200 3055.9650
59.4400 2950.8275
59.4600 3088.6225
59.4800 3149.7650
59.5000 3251.6525
59.5200 3299.0575
59.5400 3199.5300
59.5600 3153.9900
59.5800 3150.1175
59.6000 3158.3325
59.6200 3006.2225
59.6400 2947.0625
59.6600 3079.8100
59.6800 3188.3775
59.7000 3114.7975
59.7200 3156.5575
59.7400 3392.6000
59.7600 3352.7100
59.7800 3224.6500
59.8000 3301.3950
59.8200 3416.9000
59.8400 3522.0525
59.8600 3536.5150
59.8800 3352.6025
59.9000 3423.3200
59.9200 3528.1850
59.9400 3475.2300
59.9600 3474.7700
59.9800 3593.5125
60.0000 3712.3275
60.0200 3632.4125
60.0400 3579.3400
60.0600 3642.3575
60.0800 3729.6825
60.1000 3686.4100
60.1200 3633.6775
60.1400 3624.5425
60.1600 3540.9800
60.1800 3571.9200
60.2000 3586.6425
60.2200 3558.7900
60.2400 3617.0100
60.2600 3561.4150
60.2800 3496.0050
60.3000 3588.5825
60.3200 3797.6000
60.3400 3684.2550
60.3600 3589.3775
60.3800 3737.6700
60.4000 3559.9425
60.4200 3311.6475
60.4400 3317.5750
60.4600 3438.2375
60.4800 3284.7200
60.5000 3290.2800
60.5200 3335.4025
60.5400 3267.8000
60.5600 3311.9900
60.5800 3224.3200
60.6000 3111.6500
60.6200 3109.1250
60.6400 3162.4425
60.6600 3052.7525
60.6800 3004.9025
60.7000 2990.7625
60.7200 3039.0275
60.7400 3162.6700
60.7600 2963.8400
60.7800 2783.6725
60.8000 2723.8700
60.8200 2721.9075
60.8400 2838.0100
60.8600 2828.5450
60.8800 2732.6550
60.9000 2679.1100
60.9200 2603.2050
60.9400 2516.4400
60.9600 2571.7950
60.9800 2641.6675
61.0000 2696.5700
61.0200 2661.3100
61.0400 2655.2425
61.0600 2707.9925
61.0800 2657.9925
61.1000 2553.0900
61.1200 2551.0200
61.1400 2582.7650
61.1600 2507.8800
61.1800 2555.2450
61.2000 2506.6275
61.2200 2497.3700
61.2400 2629.4500
61.2600 2628.8825
61.2800 2523.8600
61.3000 2428.9950
61.3200 2349.0875
61.3400 2241.0950
61.3600 2246.4625
61.3800 2304.3375
61.4000 2320.8900
61.4200 2405.2550
61.4400 2360.8375
61.4600 2321.9250
61.4800 2264.8275
61.5000 2162.9025
61.5200 2183.2175
61.5400 2242.5900
61.5600 2312.5575
61.5800 2384.2575
61.6000 2310.5900
61.6200 2238.3700
61.6400 2367.5950
61.6600 2289.6925
61.6800 2150.0000
61.7000 2297.8725
61.7200 2395.1925
61.7400 2269.7225
61.7600 2166.3150
61.7800 2259.9750
61.8000 2391.9025
61.8200 2264.6675
61.8400 2154.5800
61.8600 2267.8475
61.8800 2379.5800
61.9000 2357.6225
61.9200 2278.7525
61.9400 2347.2000
61.9600 2416.3100
61.9800 2374.7625
62.0000 2299.1625
62.0200 2355.7825
62.0400 2293.3725
62.0600 2141.9075
62.0800 2179.4675
62.1000 2254.9525
62.1200 2232.2450
62.1400 2158.3325
62.1600 2192.1525
62.1800 2296.8700
62.2000 2446.9950
62.2200 2482.7200
62.2400 2331.7375
62.2600 2271.5100
62.2800 2164.4450
62.3000 2050.4950
62.3200 2210.1925
62.3400 2392.5375
62.3600 2382.3350
62.3800 2232.0825
62.4000 2111.9350
62.4200 2184.9675
62.4400 2342.4225
62.4600 2345.1375
62.4800 2211.1700
62.5000 2218.0650
62.5200 2253.3375
62.5400 2183.0775
62.5600 2204.7450
62.5800 2326.2875
62.6000 2425.2575
62.6200 2399.3525
62.6400 2493.7450
62.6600 2586.9125
62.6800 2558.4650
62.7000 2456.6275
62.7200 2451.5800
62.7400 2478.0450
62.7600 2349.0725
62.7800 2342.4650
62.8000 2357.8000
62.8200 2286.8975
62.8400 2381.2500
62.8600 2554.9075
62.8800 2659.2800
62.9000 2555.7525
62.9200 2425.4100
62.9400 2348.3575
62.9600 2355.8850
62.9800 2432.9200
63.0000 2306.6725
63.0200 2242.2225
63.0400 2296.1825
63.0600 2337.8500
63.0800 2447.3100
63.1000 2406.2150
63.1200 2245.1950
63.1400 2377.8475
63.1600 2537.4275
63.1800 2414.6575
63.2000 2342.3875
63.2200 2417.2450
63.2400 2365.2125
63.2600 2257.8950
63.2800 2296.9325
63.3000 2366.8150
63.3200 2273.2250
63.3400 2187.7225
63.3600 2314.5125
63.3800 2348.6525
63.4000 2245.3075
63.4200 2250.6050
63.4400 2236.6650
63.4600 2259.5550
63.4800 2274.0800
63.5000 2182.5625
63.5200 2158.6425
63.5400 2302.3300
63.5600 2403.7775
63.5800 2289.9400
63.6000 2183.0175
63.6200 2260.0750
63.6400 2252.3375
63.6600 2188.0600
63.6800 2318.5950
63.7000 2272.2550
63.7200 2073.8650
63.7400 2076.1425
63.7600 2112.0900
63.7800 2083.1675
63.8000 2172.7375
63.8200 2245.4175
63.8400 2195.2475
63.8600 2102.9075
63.8800 2084.1775
63.9000 2056.9750
63.9200 2055.4475
63.9400 2048.6275
63.9600 1936.5525
63.9800 1972.4800
64.0000 2101.0450
64.0200 2162.7625
64.0400 2140.9625
64.0600 2121.1000
64.0800 2031.1975
64.1000 2001.4300
64.1200 1981.5350
64.1400 1917.0275
64.1600 1980.1675
64.1800 2063.3225
64.2000 2151.1025
64.2200 2136.1150
64.2400 2181.4900
64.2600 2159.7900
64.2800 2071.4900
64.3000 2193.7450
64.3200 2108.6050
64.3400 1971.5025
64.3600 2076.7275
64.3800 2009.3125
64.4000 1870.7350
64.4200 1926.3675
64.4400 1966.2750
64.4600 2005.4500
64.4800 1990.0775
64.5000 2035.9300
64.5200 2107.5300
64.5400 2096.3375
64.5600 2022.7650
64.5800 1946.1400
64.6000 2052.2625
64.6200 2086.1550
64.6400 1956.4625
64.6600 2032.8275
64.6800 2081.0200
64.7000 2034.3925
64.7200 2066.4550
64.7400 1891.6575
64.7600 2019.7150
64.7800 2116.3925
64.8000 2091.0950
64.8200 2160.8550
64.8400 2048.6775
64.8600 1927.2825
64.8800 1789.8825
64.9000 1831.9725
64.9200 1890.5375
64.9400 1978.4075
64.9600 2074.3150
64.9800 2109.9425
65.0000 2119.5625
65.0200 2032.1700
65.0400 1953.1150
65.0600 2006.6375
65.0800 1954.5450
65.1000 1957.8600
65.1200 2100.4800
65.1400 2018.0600
65.1600 1933.5750
65.1800 1980.2650
65.2000 1965.1925
65.2200 1976.7300
65.2400 2050.4975
65.2600 1967.9575
65.2800 1965.1400
65.3000 2032.8275
65.3200 1999.4900
65.3400 2034.8700
65.3600 2018.9000
65.3800 1958.3325
65.4000 1988.4125
65.4200 2068.2425
65.4400 1974.8100
65.4600 1910.4600
65.4800 2013.7025
65.5000 2037.0975
65.5200 1981.9800
65.5400 1988.9975
65.5600 1947.2600
65.5800 2008.7150
65.6000 2064.1700
65.6200 1939.9925
65.6400 1999.3425
65.6600 2095.6925
65.6800 2083.0500
65.7000 2092.2375
65.7200 2013.5025
65.7400 1933.6225
65.7600 1941.6675
65.7800 1941.6675
65.8000 1954.6100
65.8200 1940.7775
65.8400 1955.5100
65.8600 1901.0125
65.8800 1790.7600
65.9000 1883.2725
65.9200 1857.7575
65.9400 1789.5000
65.9600 1902.1675
65.9800 1902.1400
66.0000 1845.6775
66.0200 1824.3700
66.0400 1985.6750
66.0600 2119.7150
66.0800 2035.4100
66.1000 1927.0650
66.1200 2048.1750
66.1400 2026.4575
66.1600 1841.0075
66.1800 1820.6675
66.2000 1929.3350
66.2200 1955.3125
66.2400 1892.0050
66.2600 1847.9625
66.2800 1860.7250
66.3000 1929.6825
66.3200 1963.3650
66.3400 1931.2450
66.3600 1835.5725
66.3800 1856.8100
66.4000 1942.7300
66.4200 2018.8075
66.4400 2040.5900
66.4600 2012.3200
66.4800 2064.8625
66.5000 2007.9275
66.5200 1903.9825
66.5400 1939.1650
66.5600 1844.4125
66.5800 1746.7700
66.6000 1792.7975
66.6200 1794.8850
66.6400 1818.5750
66.6600 1989.0950
66.6800 1960.0975
66.7000 1964.5525
66.7200 2017.5100
66.7400 1984.9075
66.7600 1977.3850
66.7800 2046.4475
66.8000 1997.5550
66.8200 1892.8775
66.8400 1925.4050
66.8600 1876.5150
66.8800 1833.7450
66.9000 1933.5050
66.9200 1968.5475
66.9400 1907.4975
66.9600 1900.4200
66.9800 1960.8725
67.0000 1872.5675
67.0200 1855.1400
67.0400 1945.6175
67.0600 2003.0350
67.0800 2053.9475
67.1000 1905.2600
67.1200 1994.3700
67.1400 2068.7825
67.1600 1817.8525
67.1800 1704.8400
67.2000 1756.2025
67.2200 1936.6725
67.2400 1934.8025
67.2600 1926.5875
67.2800 1937.0350
67.3000 1937.5275
67.3200 2065.5475
67.3400 2182.7025
67.3600 2083.1300
67.3800 1972.5025
67.4000 1911.8675
67.4200 1859.7825
67.4400 1900.9725
67.4600 1925.4875
67.4800 1924.5075
67.5000 1890.1825
67.5200 1857.8350
67.5400 1925.0850
67.5600 1996.0850
67.5800 1977.9000
67.6000 1931.8050
67.6200 1979.0975
67.6400 1944.3325
67.6600 1968.9775
67.6800 1964.8400
67.7000 1830.7125
67.7200 1729.6425
67.7400 1719.3200
67.7600 1824.8350
67.7800 1838.9825
67.8000 1786.6900
67.8200 1806.0675
67.8400 1877.7300
67.8600 1912.2250
67.8800 1886.1175
67.9000 1871.1100
67.9200 1834.9850
67.9400 1795.5525
67.9600 1822.8125
67.9800 1894.5100
68.0000 1848.7325
68.0200 1788.3625
68.0400 1750.9850
68.0600 1833.1475
68.0800 1968.4225
68.1000 2018.4325
68.1200 2068.4425
68.1400 1953.2700
68.1600 1855.6650
68.1800 1870.5325
68.2000 1821.9725
68.2200 1787.8050
68.2400 1975.0600
68.2600 1994.6175
68.2800 1897.3825
68.3000 1836.0575
68.3200 1856.2675
68.3400 1857.1425
68.3600 1899.2725
68.3800 1924.3850
68.4000 1938.4625
68.4200 1919.1975
68.4400 1836.5275
68.4600 1780.0750
68.4800 1773.1275
68.5000 1826.9775
68.5200 1885.9850
68.5400 1876.1675
68.5600 1805.6525
68.5800 1824.5400
68.6000 1938.7575
68.6200 1900.8350
68.6400 1879.7975
68.6600 1870.1750
68.6800 1834.7200
68.7000 1922.2425
68.7200 1879.4400
68.7400 1769.0725
68.7600 1844.9400
68.7800 1961.1825
68.8000 1878.5450
68.8200 1815.0200
68.8400 1832.6100
68.8600 1902.0225
68.8800 1844.2800
68.9000 1655.5050
68.9200 1678.6075
68.9400 1853.6500
68.9600 1788.0250
68.9800 1834.7550
69.0000 1970.4550
69.0200 1971.2125
69.0400 1856.7250
69.0600 1785.6400
69.0800 1790.1200
69.1000 1729.4475
69.1200 1782.8150
69.1400 1799.0600
69.1600 1754.5625
69.1800 1671.6225
69.2000 1695.8850
69.2200 1930.3125
69.2400 1902.9475
69.2600 1779.5725
69.2800 1934.2925
69.3000 1884.4175
69.3200 1677.5625
69.3400 1721.2025
69.3600 1864.1650
69.3800 1921.2525
69.4000 1801.1325
69.4200 1750.4900
69.4400 1727.3750
69.4600 1734.7275
69.4800 1714.3825
69.5000 1805.5000
69.5200 1869.7850
69.5400 1857.2250
69.5600 1832.6700
69.5800 1805.4900
69.6000 1802.8350
69.6200 1699.4125
69.6400 1680.3800
69.6600 1803.4950
69.6800 1843.5675
69.7000 1820.3775
69.7200 1747.3000
69.7400 1719.4275
69.7600 1783.3275
69.7800 1835.1925
69.8000 1854.6350
69.8200 1886.1500
69.8400 1926.8875
69.8600 1862.7675
69.8800 1800.0000
69.9000 1800.0000
69.9200 1902.2650
69.9400 1969.3800
69.9600 1879.2275
69.9800 1742.1750
70.0000 1706.6250
70.0200 1701.6975
70.0400 1748.6175
70.0600 1841.9900
70.0800 1837.6550
70.1000 1831.6875
70.1200 1831.3075
70.1400 1844.7225
70.1600 1890.0575
70.1800 1875.5675
70.2000 1896.8350
70.2200 1858.3575
70.2400 1785.9350
70.2600 1817.2200
70.2800 1737.3500
70.3000 1837.8525
70.3200 1837.6675
70.3400 1847.2400
70.3600 1800.5425
70.3800 1677.5475
70.4000 1638.4100
70.4200 1677.9225
70.4400 1791.0075
70.4600 1874.6875
70.4800 1800.8775
70.5000 1687.2175
70.5200 1653.6075
70.5400 1673.6400
70.5600 1606.5125
70.5800 1579.5350
70.6000 1693.5875
70.6200 1829.4175
70.6400 1812.2075
70.6600 1848.4800
70.6800 1797.9850
70.7000 1760.5825
70.7200 1899.8075
70.7400 1917.9325
70.7600 1756.0400
70.7800 1742.8450
70.8000 1914.3350
70.8200 1890.3650
70.8400 1794.0250
70.8600 1769.0150
70.8800 1758.3325
70.9000 1758.3325
70.9200 1763.1150
70.9400 1785.8025
70.9600 1776.0675
70.9800 1648.1725
71.0000 1700.8550
71.0200 1886.3175
71.0400 1882.8250
71.0600 1799.7250
71.0800 1683.7225
71.1000 1765.6850
71.1200 1793.2300
71.1400 1771.8375
71.1600 1833.7100
71.1800 1641.4875
71.2000 1671.3825
71.2200 1769.7350
71.2400 1789.9450
71.2600 1771.8625
71.2800 1830.0075
71.3000 1880.6525
71.3200 1842.4675
71.3400 1854.0575
71.3600 1875.0000
71.3800 1807.1150
71.4000 1869.9275
71.4200 1789.7875
71.4400 1660.4250
71.4600 1708.3325
71.4800 1759.7275
71.5000 1878.6125
71.5200 1895.0175
71.5400 1757.4050
71.5600 1764.8150
71.5800 1928.9000
71.6000 1842.3175
71.6200 1764.0875
71.6400 1718.3300
71.6600 1720.4825
71.6800 1797.4975
71.7000 1991.5525
71.7200 1912.2625
71.7400 1868.1950
71.7600 1844.9875
71.7800 1773.5100
71.8000 1776.4950
71.8200 1773.4975
71.8400 1815.8775
71.8600 1830.3025
71.8800 1762.4650
71.9000 1725.0000
71.9200 1877.9525
71.9400 1785.8450
71.9600 1674.7025
71.9800 1676.8350
72.0000 1691.4025
72.0200 1723.1850
72.0400 1659.0275
72.0600 1727.3000
72.0800 1813.2925
72.1000 1757.1025
72.1200 1835.8750
72.1400 1822.2300
72.1600 1798.1225
72.1800 1894.6775
72.2000 1747.4325
72.2200 1776.1475
72.2400 1798.5525
72.2600 1756.6375
72.2800 1656.8000
72.3000 1623.3125
72.3200 1770.0175
72.3400 1794.9550
72.3600 1808.4100
72.3800 1836.6550
72.4000 1753.1025
72.4200 1800.3600
72.4400 1781.3025
72.4600 1830.5225
72.4800 1859.7725
72.5000 1722.6325
72.5200 1584.5400
72.5400 1667.6375
72.5600 1770.1700
72.5800 1768.1950
72.6000 1692.6925
72.6200 1730.8475
72.6400 1707.4875
72.6600 1825.3125
72.6800 1827.0000
72.7000 1874.8775
72.7200 1828.3050
72.7400 1765.2225
72.7600 1637.8975
72.7800 1798.9900
72.8000 1846.4625
72.8200 1810.6200
72.8400 1802.7800
72.8600 1768.0450
72.8800 1717.5375
72.9000 1900.8950
72.9200 1895.4500
72.9400 1854.3275
72.9600 1924.2450
72.9800 1909.0575
73.0000 1888.4550
73.0200 1927.5425
73.0400 1832.0375
73.0600 1727.5375
73.0800 1775.1050
73.1000 1760.1275
73.1200 1863.8800
73.1400 1780.1350
73.1600 1711.0575
73.1800 1790.0375
73.2000 1788.8900
73.2200 1911.2150
73.2400 1969.0025
73.2600 1769.0525
73.2800 1798.0250
73.3000 1857.4450
73.3200 1862.3925
73.3400 1823.1475
73.3600 1791.6675
73.3800 1755.3175
73.4000 1738.5300
73.4200 1746.8675
73.4400 1750.0000
73.4600 1755.2075
73.4800 1742.6975
73.5000 1681.1750
73.5200 1613.4625
73.5400 1649.1275
73.5600 1725.1525
73.5800 1807.5450
73.6000 1752.6650
73.6200 1642.3675
73.6400 1597.8475
73.6600 1675.6200
73.6800 1714.4975
73.7000 1808.1775
73.7200 1966.5850
73.7400 1846.0625
73.7600 1652.1300
73.7800 1842.4575
73.8000 1719.5925
73.8200 1719.7525
73.8400 1729.0925
73.8600 1625.1775
73.8800 1729.2275
73.9000 1681.2575
73.9200 1618.9300
73.9400 1651.5150
73.9600 1703.8150
73.9800 1756.8650
74.0000 1966.3400
74.0200 1894.1500
74.0400 1796.9900
74.0600 1746.7275
74.0800 1690.0100
74.1000 1792.3800
74.1200 1762.2225
74.1400 1895.3600
74.1600 1919.7850
74.1800 1853.5925
74.2000 1852.3775
74.2200 1842.2525
74.2400 1806.5125
74.2600 1737.9825
74.2800 1821.1575
74.3000 1883.3325
74.3200 1877.9525
74.3400 1880.3850
74.3600 1753.9900
74.3800 1775.0225
74.4000 1781.8175
74.4200 1796.1475
74.4400 1681.5150
74.4600 1640.7950
74.4800 1663.7475
74.5000 1845.4875
74.5200 1833.2050
74.5400 1720.7275
74.5600 1631.9200
74.5800 1773.9475
74.6000 1953.7075
74.6200 1923.7775
74.6400 1894.2300
74.6600 1981.7950
74.6800 1970.4275
74.7000 1990.8200
74.7200 2038.5300
74.7400 2000.7675
74.7600 2122.8150
74.7800 2041.1100
74.8000 1749.9700
74.8200 1767.8825
74.8400 1871.7775
74.8600 1996.0975
74.8800 2016.9950
74.9000 2082.5775
74.9200 1844.0150
74.9400 1881.9600
74.9600 1952.9275
74.9800 1809.1200
75.0000 1824.5750
75.0200 1927.5150
75.0400 1864.2200
75.0600 1894.2325
75.0800 1855.7050
75.1000 1761.1725
75.1200 1772.2100
75.1400 1813.9000
75.1600 1869.5025
75.1800 1869.3975
75.2000 1780.3275
75.2200 1663.6000
75.2400 1591.5150
75.2600 1647.6075
75.2800 1660.9750
75.3000 1661.1875
75.3200 1795.4400
75.3400 1746.2650
75.3600 1641.1950
75.3800 1723.3050
75.4000 1685.1275
75.4200 1596.6925
75.4400 1755.0400
75.4600 1723.4200
75.4800 1723.0200
75.5000 1772.5600
75.5200 1687.3750
75.5400 1669.9125
75.5600 1632.4475
75.5800 1772.4300
75.6000 1731.0750
75.6200 1623.9900
75.6400 1702.1025
75.6600 1767.0300
75.6800 1854.5450
75.7000 1783.6250
75.7200 1562.6000
75.7400 1563.0750
75.7600 1742.5100
75.7800 1602.9475
75.8000 1542.5925
75.8200 1592.6200
75.8400 1631.2100
75.8600 1584.4275
75.8800 1472.4025
75.9000 1473.4675
75.9200 1457.2375
75.9400 1568.0125
75.9600 1625.0000
75.9800 1665.2675
76.0000 1804.2375
76.0200 1702.7575
76.0400 1616.0325
76.0600 1579.4750
76.0800 1601.3250
76.1000 1506.8225
76.1200 1655.0600
76.1400 1672.1750
76.1600 1624.2800
76.1800 1686.2725
76.2000 1559.9200
76.2200 1485.8575
76.2400 1657.7875
76.2600 1634.3925
76.2800 1545.0675
76.3000 1589.1275
76.3200 1651.6750
76.3400 1619.9500
76.3600 1722.7325
76.3800 1739.9050
76.4000 1736.7075
76.4200 1618.6250
76.4400 1678.0850
76.4600 1678.0475
76.4800 1605.4675
76.5000 1583.3325
76.5200 1618.6375
76.5400 1668.6650
76.5600 1600.8200
76.5800 1613.8575
76.6000 1592.0075
76.6200 1575.0000
76.6400 1728.7550
76.6600 1566.7575
76.6800 1510.5425
76.7000 1560.5725
76.7200 1569.0675
76.7400 1614.1775
76.7600 1562.0075
76.7800 1634.4625
76.8000 1615.4625
76.8200 1621.4600
76.8400 1633.3325
76.8600 1788.5250
76.8800 1748.4425
76.9000 1672.4600
76.9200 1610.4600
76.9400 1633.5900
76.9600 1614.0350
76.9800 1570.0025
77.0000 1540.3200
77.0200 1515.3050
77.0400 1442.1725
77.0600 1398.6075
77.0800 1482.0375
77.1000 1649.3250
77.1200 1651.7200
77.1400 1736.0150
77.1600 1642.0050
77.1800 1694.5225
77.2000 1666.7225
77.2200 1635.6050
77.2400 1590.8725
77.2600 1684.2750
77.2800 1840.4450
77.3000 1731.3050
77.3200 1565.4475
77.3400 1793.0225
77.3600 1696.5750
77.3800 1612.7975
77.4000 1583.9050
77.4200 1452.7575
77.4400 1555.1475
77.4600 1657.3125
77.4800 1601.4700
77.5000 1648.5925
77.5200 1711.8275
77.5400 1706.5700
77.5600 1638.5175
77.5800 1628.9725
77.6000 1670.2850
77.6200 1615.5300
77.6400 1579.3275
77.6600 1655.2650
77.6800 1689.5125
77.7000 1654.5575
77.7200 1555.0075
77.7400 1710.8525
77.7600 1706.7975
77.7800 1695.7450
77.8000 1637.8925
77.8200 1616.6675
77.8400 1616.6675
77.8600 1622.8925
77.8800 1811.9475
77.9000 1675.4225
77.9200 1751.9000
77.9400 1781.2575
77.9600 1762.4950
77.9800 1645.6950
78.0000 1539.4400
78.0200 1516.6675
78.0400 1491.5725
78.0600 1508.4475
78.0800 1623.4925
78.1000 1733.8025
78.1200 1682.8025
78.1400 1557.5400
78.1600 1537.6100
78.1800 1459.6375
78.2000 1565.9525
78.2200 1595.6925
78.2400 1591.6675
78.2600 1585.3350
78.2800 1659.3675
78.3000 1524.7975
78.3200 1646.3600
78.3400 1579.3125
78.3600 1668.8100
78.3800 1631.9850
78.4000 1672.0100
78.4200 1691.6675
78.4400 1615.1300
78.4600 1572.5175
78.4800 1758.3250
78.5000 1599.2775
78.5200 1565.3275
78.5400 1555.7875
78.5600 1665.3725
78.5800 1764.1475
78.6000 1667.7725
78.6200 1748.9875
78.6400 1776.9025
78.6600 1710.6425
78.6800 1575.7300
78.7000 1451.4200
78.7200 1586.2850
78.7400 1542.9400
78.7600 1523.1275
78.7800 1505.6000
78.8000 1500.0000
78.8200 1538.8650
78.8400 1569.4475
78.8600 1575.0000
78.8800 1678.8900
78.9000 1662.8450
78.9200 1669.5100
78.9400 1570.8600
78.9600 1593.7775
78.9800 1653.9675
79.0000 1451.3625
79.0200 1483.0800
79.0400 1586.7500
79.0600 1627.9525
79.0800 1613.6975
79.1000 1555.9300
79.1200 1666.2225
79.1400 1503.1800
79.1600 1522.2250
79.1800 1554.8100
79.2000 1637.2475
79.2200 1487.2175
79.2400 1408.7350
79.2600 1650.4850
79.2800 1644.1000
79.3000 1605.1950
79.3200 1553.7500
79.3400 1634.2400
79.3600 1691.4200
79.3800 1594.0375
79.4000 1540.1550
79.4200 1612.9275
79.4400 1706.3525
79.4600 1558.9200
79.4800 1609.7425
79.5000 1600.0650
79.5200 1511.7625
79.5400 1538.3125
79.5600 1543.3300
79.5800 1528.3200
79.6000 1464.8900
79.6200 1483.4200
79.6400 1525.1125
79.6600 1647.1375
79.6800 1728.5950
79.7000 1600.8725
79.7200 1506.2800
79.7400 1625.9600
79.7600 1611.2950
79.7800 1404.9825
79.8000 1587.1475
79.8200 1614.7275
79.8400 1601.5925
79.8600 1593.2550
79.8800 1578.1675
79.9000 1507.4500
79.9200 1552.5075
79.9400 1485.4850
79.9600 1493.7475
79.9800 1560.9750
80.0000 1486.8600
