Mar. 20, 2024   12:12:58
A.C. Impedance
File: c:\documents and settings\administrator\Data Source:  Experiment
Instrument Model:  CHI760E
Header: 
Note: 

Init E (V) = 0.5
High Frequency (Hz) = 1e+5
Low Frequency (Hz) = 0.1
Imp SF
Amplitude (V) = 0.005
Quiet Time (sec) = 2
Cycles (.1-1Hz) = 1

Freq/Hz, Z'/ohm, Z"/ohm, Z/ohm, Phase/deg

9.995e+4, 2.145e+0, 5.190e-1, 2.207e+0, 13.6
8.252e+4, 2.123e+0, 4.247e-1, 2.165e+0, 11.3
6.812e+4, 2.108e+0, 3.448e-1, 2.136e+0, 9.3
5.625e+4, 2.103e+0, 2.766e-1, 2.121e+0, 7.5
4.644e+4, 2.101e+0, 2.243e-1, 2.113e+0, 6.1
3.833e+4, 2.098e+0, 1.800e-1, 2.106e+0, 4.9
3.164e+4, 2.098e+0, 1.420e-1, 2.103e+0, 3.9
2.612e+4, 2.099e+0, 1.110e-1, 2.102e+0, 3.0
2.153e+4, 2.101e+0, 8.307e-2, 2.103e+0, 2.3
1.777e+4, 2.104e+0, 6.006e-2, 2.105e+0, 1.6
1.470e+4, 2.107e+0, 4.076e-2, 2.108e+0, 1.1
1.211e+4, 2.110e+0, 2.435e-2, 2.110e+0, 0.7
1.001e+4, 2.114e+0, 9.461e-3, 2.114e+0, 0.3
8.252e+3, 2.124e+0, -8.361e-3, 2.124e+0, -0.2
6.812e+3, 2.129e+0, -1.944e-2, 2.129e+0, -0.5
5.625e+3, 2.135e+0, -3.002e-2, 2.135e+0, -0.8
4.643e+3, 2.140e+0, -4.017e-2, 2.140e+0, -1.1
3.833e+3, 2.145e+0, -5.036e-2, 2.146e+0, -1.3
3.164e+3, 2.152e+0, -6.005e-2, 2.153e+0, -1.6
2.612e+3, 2.158e+0, -7.066e-2, 2.159e+0, -1.9
2.153e+3, 2.166e+0, -8.189e-2, 2.167e+0, -2.2
1.777e+3, 2.175e+0, -9.358e-2, 2.177e+0, -2.5
1.470e+3, 2.184e+0, -1.064e-1, 2.187e+0, -2.8
1.211e+3, 2.195e+0, -1.202e-1, 2.198e+0, -3.1
1.001e+3, 2.207e+0, -1.356e-1, 2.211e+0, -3.5
8.252e+2, 2.237e+0, -1.453e-1, 2.242e+0, -3.7
6.836e+2, 2.252e+0, -1.646e-1, 2.258e+0, -4.2
5.615e+2, 2.269e+0, -1.866e-1, 2.276e+0, -4.7
4.639e+2, 2.288e+0, -2.102e-1, 2.297e+0, -5.2
3.809e+2, 2.309e+0, -2.365e-1, 2.321e+0, -5.8
3.174e+2, 2.332e+0, -2.629e-1, 2.346e+0, -6.4
2.588e+2, 2.360e+0, -2.965e-1, 2.378e+0, -7.2
2.148e+2, 2.389e+0, -3.298e-1, 2.411e+0, -7.9
1.758e+2, 2.424e+0, -3.687e-1, 2.452e+0, -8.6
1.465e+2, 2.459e+0, -4.077e-1, 2.493e+0, -9.4
1.221e+2, 2.499e+0, -4.507e-1, 2.539e+0, -10.2
9.766e+1, 2.553e+0, -5.012e-1, 2.602e+0, -11.1
8.254e+1, 2.609e+0, -5.223e-1, 2.660e+0, -11.3
6.813e+1, 2.667e+0, -5.853e-1, 2.730e+0, -12.4
5.623e+1, 2.741e+0, -6.623e-1, 2.820e+0, -13.6
4.642e+1, 2.803e+0, -7.231e-1, 2.895e+0, -14.5
3.831e+1, 2.884e+0, -8.005e-1, 2.993e+0, -15.5
3.162e+1, 2.974e+0, -8.838e-1, 3.102e+0, -16.6
2.610e+1, 3.074e+0, -9.730e-1, 3.225e+0, -17.6
2.154e+1, 3.186e+0, -1.069e+0, 3.361e+0, -18.6
1.778e+1, 3.312e+0, -1.172e+0, 3.513e+0, -19.5
1.468e+1, 3.454e+0, -1.284e+0, 3.685e+0, -20.4
1.212e+1, 3.616e+0, -1.402e+0, 3.878e+0, -21.2
1.000e+1, 3.802e+0, -1.515e+0, 4.093e+0, -21.7
8.254e+0, 4.007e+0, -1.640e+0, 4.330e+0, -22.3
6.813e+0, 4.236e+0, -1.765e+0, 4.589e+0, -22.6
5.623e+0, 4.493e+0, -1.886e+0, 4.873e+0, -22.8
4.642e+0, 4.780e+0, -1.995e+0, 5.179e+0, -22.7
3.831e+0, 5.094e+0, -2.085e+0, 5.505e+0, -22.3
3.162e+0, 5.443e+0, -2.153e+0, 5.854e+0, -21.6
2.610e+0, 5.774e+0, -2.185e+0, 6.173e+0, -20.7
2.154e+0, 6.165e+0, -2.182e+0, 6.540e+0, -19.5
1.778e+0, 6.495e+0, -2.140e+0, 6.839e+0, -18.2
1.468e+0, 6.946e+0, -2.053e+0, 7.243e+0, -16.5
1.212e+0, 7.226e+0, -1.943e+0, 7.483e+0, -15.1
1.000e+0, 7.477e+0, -1.787e+0, 7.688e+0, -13.4
8.254e-1, 7.722e+0, -1.602e+0, 7.886e+0, -11.7
6.813e-1, 7.887e+0, -1.456e+0, 8.021e+0, -10.5
5.623e-1, 8.050e+0, -1.307e+0, 8.156e+0, -9.2
4.642e-1, 8.177e+0, -1.155e+0, 8.259e+0, -8.0
3.831e-1, 8.287e+0, -1.010e+0, 8.348e+0, -7.0
3.162e-1, 8.380e+0, -8.781e-1, 8.426e+0, -6.0
2.610e-1, 8.453e+0, -7.560e-1, 8.487e+0, -5.1
2.154e-1, 8.489e+0, -6.388e-1, 8.513e+0, -4.3
1.778e-1, 8.532e+0, -5.353e-1, 8.548e+0, -3.6
1.468e-1, 8.558e+0, -4.512e-1, 8.570e+0, -3.0
1.212e-1, 8.574e+0, -3.698e-1, 8.582e+0, -2.5
1.000e-1, 8.572e+0, -3.087e-1, 8.578e+0, -2.1
