Mar. 20, 2024   17:54:38
A.C. Impedance
File: c:\documents and settings\administrator\Data Source:  Experiment
Instrument Model:  CHI760E
Header: 
Note: 

Init E (V) = 0.5
High Frequency (Hz) = 1e+5
Low Frequency (Hz) = 0.1
Imp SF
Amplitude (V) = 0.005
Quiet Time (sec) = 2
Cycles (.1-1Hz) = 1

Freq/Hz, Z'/ohm, Z"/ohm, Z/ohm, Phase/deg

9.995e+4, 1.849e+0, 5.395e-1, 1.926e+0, 16.3
8.252e+4, 1.830e+0, 4.427e-1, 1.882e+0, 13.6
6.812e+4, 1.817e+0, 3.615e-1, 1.853e+0, 11.3
5.625e+4, 1.811e+0, 2.928e-1, 1.834e+0, 9.2
4.644e+4, 1.810e+0, 2.413e-1, 1.826e+0, 7.6
3.833e+4, 1.805e+0, 1.924e-1, 1.815e+0, 6.1
3.164e+4, 1.804e+0, 1.544e-1, 1.811e+0, 4.9
2.612e+4, 1.804e+0, 1.227e-1, 1.808e+0, 3.9
2.153e+4, 1.807e+0, 9.538e-2, 1.809e+0, 3.0
1.777e+4, 1.807e+0, 7.347e-2, 1.809e+0, 2.3
1.470e+4, 1.811e+0, 5.477e-2, 1.812e+0, 1.7
1.211e+4, 1.813e+0, 3.876e-2, 1.813e+0, 1.2
1.001e+4, 1.814e+0, 2.517e-2, 1.815e+0, 0.8
8.252e+3, 1.819e+0, 9.342e-3, 1.819e+0, 0.3
6.812e+3, 1.822e+0, -1.126e-4, 1.822e+0, -0.0
5.625e+3, 1.826e+0, -8.906e-3, 1.826e+0, -0.3
4.643e+3, 1.828e+0, -1.652e-2, 1.828e+0, -0.5
3.833e+3, 1.832e+0, -2.436e-2, 1.832e+0, -0.8
3.164e+3, 1.836e+0, -3.212e-2, 1.837e+0, -1.0
2.612e+3, 1.838e+0, -3.898e-2, 1.839e+0, -1.2
2.153e+3, 1.842e+0, -4.688e-2, 1.843e+0, -1.5
1.777e+3, 1.848e+0, -5.499e-2, 1.849e+0, -1.7
1.470e+3, 1.853e+0, -6.342e-2, 1.854e+0, -2.0
1.211e+3, 1.860e+0, -7.265e-2, 1.861e+0, -2.2
1.001e+3, 1.867e+0, -8.286e-2, 1.869e+0, -2.5
8.252e+2, 1.896e+0, -8.804e-2, 1.898e+0, -2.7
6.836e+2, 1.905e+0, -1.016e-1, 1.908e+0, -3.1
5.615e+2, 1.916e+0, -1.170e-1, 1.919e+0, -3.5
4.639e+2, 1.927e+0, -1.334e-1, 1.932e+0, -4.0
3.809e+2, 1.941e+0, -1.521e-1, 1.947e+0, -4.5
3.174e+2, 1.955e+0, -1.710e-1, 1.963e+0, -5.0
2.588e+2, 1.974e+0, -1.943e-1, 1.983e+0, -5.6
2.148e+2, 1.993e+0, -2.172e-1, 2.005e+0, -6.2
1.758e+2, 2.017e+0, -2.447e-1, 2.032e+0, -6.9
1.465e+2, 2.042e+0, -2.717e-1, 2.060e+0, -7.6
1.221e+2, 2.070e+0, -3.002e-1, 2.092e+0, -8.3
9.766e+1, 2.108e+0, -3.318e-1, 2.134e+0, -8.9
8.254e+1, 2.147e+0, -3.413e-1, 2.174e+0, -9.0
6.813e+1, 2.188e+0, -3.825e-1, 2.221e+0, -9.9
5.623e+1, 2.240e+0, -4.322e-1, 2.281e+0, -10.9
4.642e+1, 2.282e+0, -4.697e-1, 2.330e+0, -11.6
3.831e+1, 2.337e+0, -5.174e-1, 2.394e+0, -12.5
3.162e+1, 2.398e+0, -5.670e-1, 2.464e+0, -13.3
2.610e+1, 2.463e+0, -6.192e-1, 2.540e+0, -14.1
2.154e+1, 2.536e+0, -6.749e-1, 2.624e+0, -14.9
1.778e+1, 2.616e+0, -7.336e-1, 2.717e+0, -15.7
1.468e+1, 2.701e+0, -7.964e-1, 2.816e+0, -16.4
1.212e+1, 2.795e+0, -8.638e-1, 2.925e+0, -17.2
1.000e+1, 2.899e+0, -9.293e-1, 3.045e+0, -17.8
8.254e+0, 3.012e+0, -1.007e+0, 3.176e+0, -18.5
6.813e+0, 3.132e+0, -1.092e+0, 3.317e+0, -19.2
5.623e+0, 3.264e+0, -1.183e+0, 3.472e+0, -19.9
4.642e+0, 3.410e+0, -1.282e+0, 3.643e+0, -20.6
3.831e+0, 3.578e+0, -1.389e+0, 3.838e+0, -21.2
3.162e+0, 3.774e+0, -1.506e+0, 4.063e+0, -21.8
2.610e+0, 3.961e+0, -1.621e+0, 4.280e+0, -22.3
2.154e+0, 4.227e+0, -1.753e+0, 4.576e+0, -22.5
1.778e+0, 4.459e+0, -1.871e+0, 4.835e+0, -22.8
1.468e+0, 4.901e+0, -2.020e+0, 5.301e+0, -22.4
1.212e+0, 5.175e+0, -2.119e+0, 5.592e+0, -22.3
1.000e+0, 5.517e+0, -2.185e+0, 5.933e+0, -21.6
8.254e-1, 5.807e+0, -2.201e+0, 6.211e+0, -20.8
6.813e-1, 6.060e+0, -2.216e+0, 6.452e+0, -20.1
5.623e-1, 6.384e+0, -2.202e+0, 6.753e+0, -19.0
4.642e-1, 6.707e+0, -2.155e+0, 7.045e+0, -17.8
3.831e-1, 7.015e+0, -2.064e+0, 7.313e+0, -16.4
3.162e-1, 7.299e+0, -1.942e+0, 7.553e+0, -14.9
2.610e-1, 7.556e+0, -1.790e+0, 7.765e+0, -13.3
2.154e-1, 7.782e+0, -1.624e+0, 7.950e+0, -11.8
1.778e-1, 7.995e+0, -1.470e+0, 8.129e+0, -10.4
1.468e-1, 8.130e+0, -1.263e+0, 8.227e+0, -8.8
1.212e-1, 8.232e+0, -1.091e+0, 8.304e+0, -7.6
1.000e-1, 8.329e+0, -9.392e-1, 8.382e+0, -6.4
